BioWare Version 5.4.9.0 Export
Device:	ISO Leg Press (NEW) 9281CA (SN<616902)	ISO Leg Press (NEW) 9281CA (SN<616902)	ISO Leg Press (NEW) 9281CA (SN<616902)
Samples (#):	1500	1500	1500
Rate (Hz):	100.000000	100.000000	100.000000
Contact period start (sample #):	0	0	0
Contact period end (sample #):	1499	1499	1499
Contact period start time (s):	0.000000	0.000000	0.000000
Contact period end time (s):	14.990000	14.990000	14.990000
First sample time (s):	0.000000	0.000000	0.000000
Normalized force (N):	800.000000	800.000000	800.000000
Normalized length (m):	1.000000	1.000000	1.000000
File Information
Date	Oct 13, 2024  11:27:38
Name	
ID	
Classification	
Description	
abs time (s)	Fx	Fy	Fz
	N	N	N
0.000000	46.016687	-0.689659	101.732075
0.010000	45.855730	-0.447074	101.573627
0.020000	45.453335	-0.407968	101.415995
0.030000	45.493828	-0.528465	100.468082
0.040000	45.414028	-0.610811	99.360407
0.050000	45.374044	-0.731308	100.626694
0.060000	45.293903	-1.013000	100.310614
0.070000	45.857597	-1.013954	99.678780
0.080000	45.455032	-0.893774	99.044979
0.090000	45.656656	-0.733217	99.045305
0.100000	45.736965	-0.774867	97.939270
0.110000	45.938417	-0.775185	97.938614
0.120000	45.656824	-0.855622	97.939596
0.130000	45.415728	-0.695701	97.781479
0.140000	45.415895	-0.937332	98.729389
0.150000	45.416576	-1.057194	96.201728
0.160000	45.376251	-1.419640	97.149645
0.170000	45.376930	-1.501032	95.726869
0.180000	45.175308	-1.903856	95.568747
0.190000	45.256126	-1.821511	95.252995
0.200000	45.256296	-2.145487	94.937078
0.210000	45.377270	-1.782723	94.462548
0.220000	45.376930	-1.822783	94.463039
0.230000	45.095507	-1.783677	94.937407
0.240000	45.015198	-1.340792	93.356674
0.250000	45.216480	-1.260355	95.412426
0.260000	45.015028	-1.139539	95.727852
0.270000	45.135662	-1.301051	95.884991
0.280000	45.216822	-1.140811	94.936749
0.290000	45.417595	-1.060056	95.886629
0.300000	45.176325	-0.939240	95.411608
0.310000	45.176157	-0.819061	96.201891
0.320000	44.653128	-0.699199	96.201729
0.330000	44.411860	-0.457886	95.729164
0.340000	44.250221	-0.337389	94.779116
0.350000	44.009295	-0.337389	95.096184
0.360000	43.687716	-0.458522	95.728836
0.370000	43.727360	-0.378403	95.727852
0.380000	43.687037	-0.137408	96.519117
0.390000	44.009123	-0.017228	97.466869
0.400000	43.848675	0.103905	97.308092
0.410000	43.808689	-0.219117	96.675930
0.420000	43.728041	0.182753	96.993486
0.430000	44.009804	0.182117	98.731354
0.440000	43.888830	0.302933	97.940252
0.450000	43.648241	0.382098	96.517973
0.460000	43.165026	0.059711	97.624664
0.470000	42.360575	0.139195	98.256990
0.480000	41.878208	0.258420	99.364172
0.490000	41.194389	0.056531	100.787109
0.500000	40.470417	0.497507	101.577887
0.510000	40.028374	0.616415	104.580242
0.520000	39.224941	1.255782	106.635502
0.530000	38.300024	1.816302	110.428959
0.540000	36.972372	2.336125	115.802004
0.550000	36.249077	3.178018	120.541903
0.560000	35.364994	4.260587	126.707035
0.570000	34.199659	5.341249	136.503407
0.580000	32.913349	6.264215	143.930731
0.590000	31.384926	7.829728	151.833076
0.600000	29.454104	9.474407	161.473621
0.610000	27.202724	10.797972	171.430082
0.620000	24.708716	12.042689	182.178465
0.630000	21.692530	13.404088	194.505779
0.640000	18.555199	14.806181	206.833746
0.650000	15.176431	16.207003	221.849304
0.660000	12.201077	17.407208	235.601841
0.670000	9.506127	18.368962	246.191284
0.680000	6.971457	18.970495	256.150372
0.690000	4.921020	19.370776	263.578999
0.700000	4.034730	19.813024	269.269928
0.710000	4.356816	19.937019	273.695873
0.720000	3.994236	19.737039	277.804920
0.730000	3.349383	19.738946	282.073742
0.740000	1.660678	19.096400	285.235207
0.750000	0.171727	18.652879	290.451271
0.760000	-0.954982	17.688581	293.771187
0.770000	-2.563886	17.126789	299.933369
0.780000	-4.535372	16.283307	308.153439
0.790000	-6.508046	15.680819	316.687778
0.800000	-8.640830	15.362885	324.430691
0.810000	-10.491682	15.163858	334.864140
0.820000	-10.894758	15.047494	344.186970
0.830000	-11.096889	14.810951	353.510448
0.840000	-12.263413	14.532441	361.412472
0.850000	-14.073601	14.010709	371.053177
0.860000	-15.722830	13.852696	382.430946
0.870000	-17.009819	13.410765	393.335976
0.880000	-18.377285	13.091877	404.085007
0.890000	-20.429081	12.532311	414.518631
0.900000	-22.763147	12.254436	426.055977
0.910000	-25.580259	12.216921	437.912369
0.920000	-28.516478	12.500520	446.922218
0.930000	-30.568611	12.703045	456.089386
0.940000	-32.017407	12.585092	465.099411
0.950000	-32.821012	12.667438	475.214325
0.960000	-33.463655	12.787617	488.963593
0.970000	-35.152869	13.068990	500.027390
0.980000	-36.520847	13.310621	510.616333
0.990000	-37.767680	13.272787	519.783180
1.000000	-39.618023	12.992368	529.898575
1.010000	-41.549864	12.991732	539.224846
1.020000	-42.594904	12.950083	546.493393
1.030000	-43.439512	12.870281	553.922188
1.040000	-44.123161	12.468410	560.559723
1.050000	-44.323765	12.789525	569.095215
1.060000	-44.243116	13.392331	573.519356
1.070000	-44.766146	13.672431	580.788559
1.080000	-46.414698	14.114362	591.062752
1.090000	-48.386013	13.835533	600.702957
1.100000	-49.029507	13.273106	610.028419
1.110000	-48.425318	13.432709	617.456390
1.120000	-48.545612	13.354497	622.670998
1.130000	-48.746046	13.355133	625.833267
1.140000	-48.947840	13.717896	627.256371
1.150000	-49.711966	14.082570	626.942574
1.160000	-50.315815	13.923603	628.998329
1.170000	-49.994238	13.164374	626.312881
1.180000	-51.000483	12.602582	628.211006
1.190000	-51.523005	12.722761	629.633789
1.200000	-50.678057	12.683338	631.214851
1.210000	-49.912739	13.044512	628.529213
1.220000	-49.751781	13.645410	629.791885
1.230000	-49.993389	14.086068	631.530586
1.240000	-50.958290	14.163325	632.480133
1.250000	-51.843050	13.720760	631.058838
1.260000	-52.124308	13.478810	631.059158
1.270000	-51.078245	14.120086	631.216301
1.280000	-50.474058	14.883767	631.690849
1.290000	-50.594522	15.565420	633.587181
1.300000	-51.439468	16.089377	633.903740
1.310000	-51.319004	16.008940	635.169533
1.320000	-50.513874	15.726295	634.221619
1.330000	-49.466793	15.404862	631.850929
1.340000	-49.828695	15.684963	633.431503
1.350000	-51.197182	16.446736	635.804131
1.360000	-52.122271	17.050178	638.805519
1.370000	-52.525517	17.614195	640.385765
1.380000	-51.760878	17.092463	641.335159
1.390000	-50.151121	16.248663	638.964462
1.400000	-49.386145	15.925323	639.280540
1.410000	-49.344973	15.685281	638.964798
1.420000	-50.794615	16.328783	640.702507
1.430000	-52.485191	17.253656	644.180702
1.440000	-53.290493	17.253656	648.607147
1.450000	-53.330647	17.372246	653.030960
1.460000	-53.208824	17.007573	659.193138
1.470000	-52.845224	16.726200	664.881302
1.480000	-53.368763	17.006938	669.623306
1.490000	-53.530569	17.450776	673.732033
1.500000	-53.611898	17.492425	675.311783
1.510000	-53.329628	18.094595	678.315620
1.520000	-53.409258	17.690817	678.000366
1.530000	-53.408920	17.207872	678.158974
1.540000	-53.005505	16.564689	677.686081
1.550000	-52.965351	16.765625	677.213013
1.560000	-53.206280	17.487657	675.632942
1.570000	-53.366217	18.651936	674.051888
1.580000	-53.406542	18.971459	675.317688
1.590000	-52.720854	19.130109	670.417862
1.600000	-51.351690	18.846828	670.574348
1.610000	-50.264284	18.924403	668.204147
1.620000	-49.538786	19.806038	666.940796
1.630000	-49.015414	20.809442	662.675262
1.640000	-48.975599	21.413200	660.149071
1.650000	-49.177221	21.657058	656.358093
1.660000	-49.257871	21.697754	655.886993
1.670000	-48.733652	21.899644	655.096870
1.680000	-47.887347	21.780417	653.833366
1.690000	-46.157976	20.580214	652.252625
1.700000	-43.864064	20.747766	652.409439
1.710000	-41.691635	20.593570	650.669121
1.720000	-40.484447	21.241841	649.721199
1.730000	-39.920923	21.003073	647.193375
1.740000	-39.679826	20.483567	649.089211
1.750000	-39.358418	20.162769	649.405617
1.760000	-39.197630	19.878853	652.885132
1.770000	-38.754910	20.118258	651.620316
1.780000	-37.788818	19.755493	653.202026
1.790000	-37.185141	20.033687	652.412888
1.800000	-36.340702	19.710664	650.199326
1.810000	-36.179065	19.670921	646.881058
1.820000	-36.903718	19.591437	645.932487
1.830000	-37.346948	19.191475	645.617081
1.840000	-37.508077	19.070024	642.931610
1.850000	-37.307132	19.390185	646.724922
1.860000	-37.065016	19.587940	647.831429
1.870000	-37.266639	19.263963	647.517166
1.880000	-38.071090	19.142194	648.782471
1.890000	-38.594459	18.818216	649.100021
1.900000	-39.238124	19.017880	650.207367
1.910000	-40.003270	19.500188	650.049576
1.920000	-40.084598	19.741819	649.420349
1.930000	-40.527658	19.942754	648.156189
1.940000	-40.527829	20.426016	650.686646
1.950000	-40.327054	20.908324	648.948776
1.960000	-40.970889	21.429738	652.112045
1.970000	-42.218570	21.952423	651.954086
1.980000	-43.023533	22.555229	652.429428
1.990000	-43.788849	22.796543	652.430573
2.000000	-42.741770	23.156763	650.692871
2.010000	-41.856839	22.914814	649.586975
2.020000	-41.333810	22.955828	648.798187
2.030000	-42.702295	22.835649	647.850784
2.040000	-43.628400	23.038492	649.749542
2.050000	-44.554505	22.756801	650.540329
2.060000	-44.353562	22.716423	652.436325
2.070000	-44.232079	22.716423	652.910507
2.080000	-43.628060	22.434414	656.071487
2.090000	-43.748864	21.589977	657.491470
2.100000	-43.869328	21.910138	658.599304
2.110000	-43.869669	21.427831	658.125763
2.120000	-43.990643	21.348028	657.336945
2.130000	-44.473516	21.427511	657.179474
2.140000	-46.203734	21.387452	661.131561
2.150000	-48.375823	21.223396	667.612122
2.160000	-50.829847	21.181429	678.357559
2.170000	-52.237469	21.418607	694.476547
2.180000	-53.201355	22.216623	713.439240
2.190000	-54.608467	23.618082	733.664459
2.200000	-56.942532	24.294011	758.949615
2.210000	-60.804518	26.134537	791.507721
2.220000	-65.794397	27.652040	828.967163
2.230000	-72.797613	29.088470	866.589447
2.240000	-80.808100	30.684502	905.005295
2.250000	-90.266865	31.437053	946.901611
2.260000	-97.834797	31.748945	990.220078
2.270000	-105.564026	32.019188	1032.117737
2.280000	-112.808342	31.445629	1072.908386
2.290000	-119.250240	32.601640	1109.118332
2.300000	-125.731789	33.877190	1136.481369
2.310000	-134.465057	34.392880	1161.951660
2.320000	-142.635132	34.989962	1179.202759
2.330000	-150.403503	35.188989	1192.976105
2.340000	-158.452278	35.349549	1208.646423
2.350000	-165.495819	35.149246	1218.785736
2.360000	-170.727982	35.390242	1227.657288
2.370000	-176.282921	35.350184	1236.685638
2.380000	-181.756859	34.387792	1243.028412
2.390000	-187.712494	33.865426	1246.999969
2.400000	-193.829590	33.379621	1252.865417
2.410000	-200.510551	33.135127	1261.259308
2.420000	-205.862671	33.692146	1268.547028
2.430000	-209.243134	33.526821	1268.879807
2.440000	-213.710503	33.402186	1269.842987
2.450000	-217.854248	33.075985	1275.546021
2.460000	-221.153725	33.392964	1278.719925
2.470000	-225.298485	34.756908	1280.471085
2.480000	-230.046928	35.400408	1288.541702
2.490000	-231.900665	36.288085	1292.181290
2.500000	-233.148010	37.013295	1293.295013
2.510000	-235.964272	36.729699	1297.096664
2.520000	-237.856125	37.932448	1300.894394
2.530000	-240.552605	38.571494	1307.063797
2.540000	-243.651817	38.690721	1314.338730
2.550000	-245.020653	38.772112	1319.874146
2.560000	-246.470284	38.371831	1321.933182
2.570000	-246.430305	39.134561	1326.362411
2.580000	-246.307297	39.372691	1326.683701
2.590000	-246.831856	40.538560	1323.527679
2.600000	-249.447685	41.582660	1324.324493
2.610000	-252.464035	41.138823	1326.858551
2.620000	-254.598686	41.219579	1329.392273
2.630000	-256.047310	40.778285	1331.292999
2.640000	-255.443291	39.448997	1334.614594
2.650000	-254.437561	38.078057	1337.775055
2.660000	-253.150742	38.119071	1343.780106
2.670000	-252.506569	38.197284	1342.676041
2.680000	-253.271545	38.957784	1340.308792
2.690000	-254.881302	39.840688	1339.207138
2.700000	-255.001259	39.281122	1334.312103
2.710000	-255.120697	37.434554	1330.680679
2.720000	-255.321304	35.225221	1328.945770
2.730000	-256.006477	35.587670	1334.639648
2.740000	-257.937973	34.904745	1344.916122
2.750000	-259.026917	36.154232	1355.823608
2.760000	-259.066727	36.512543	1363.886017
2.770000	-258.945251	38.276129	1375.264771
2.780000	-255.122910	38.923130	1381.428604
2.790000	-257.375656	38.959055	1386.014633
2.800000	-264.016113	39.322140	1392.979691
2.810000	-264.498337	40.125879	1397.252304
2.820000	-265.225357	39.767883	1398.050262
2.830000	-268.363876	39.526251	1395.373840
2.840000	-269.288284	39.929079	1395.854080
2.850000	-271.661819	39.283349	1399.179398
2.860000	-274.639557	40.969361	1400.451935
2.870000	-273.472534	41.451668	1396.347122
2.880000	-274.801025	41.811255	1394.614685
2.890000	-276.410095	41.286344	1396.673874
2.900000	-276.088181	41.526384	1398.889664
2.910000	-277.051727	37.948973	1395.891296
2.920000	-279.666534	37.226625	1393.050659
2.930000	-279.464752	37.466665	1389.894577
2.940000	-277.894135	37.104856	1385.789459
2.950000	-278.580322	38.833468	1382.001434
2.960000	-278.820572	39.798087	1376.947739
2.970000	-280.954376	40.076279	1377.265945
2.980000	-281.275787	39.510989	1377.738510
2.990000	-277.290115	38.299334	1373.464584
3.000000	-272.781067	37.167482	1370.296219
3.010000	-268.153595	37.561403	1369.496628
3.020000	-263.724838	39.242007	1367.908691
3.030000	-263.483414	41.529553	1365.693512
3.040000	-265.455917	43.820594	1363.481110
3.050000	-265.938110	45.344139	1363.010513
3.060000	-266.379486	45.945038	1365.857346
3.070000	-266.902679	45.422352	1369.969559
3.080000	-266.299850	44.818275	1374.555222
3.090000	-267.907898	44.532132	1378.350128
3.100000	-269.035126	43.646362	1385.466003
3.110000	-269.115768	44.369030	1387.681824
3.120000	-269.961914	45.050681	1390.691269
3.130000	-273.381180	44.082888	1395.755905
3.140000	-276.963257	44.401773	1401.929718
3.150000	-279.698715	43.761452	1403.992035
3.160000	-281.831833	42.956121	1400.522339
3.170000	-282.637482	44.282230	1399.422714
3.180000	-282.154755	44.962930	1395.951538
3.190000	-281.913834	45.684642	1388.686462
3.200000	-281.270691	46.805365	1379.520721
3.210000	-282.436707	47.123934	1372.729172
3.220000	-283.079346	46.075701	1368.150696
3.230000	-282.153061	45.070388	1361.040588
3.240000	-281.950943	42.980917	1353.929199
3.250000	-282.232361	42.621970	1349.978409
3.260000	-281.385712	43.505829	1347.604324
3.270000	-278.972687	43.629189	1343.331390
3.280000	-276.639984	45.081201	1343.482483
3.290000	-274.105667	46.689320	1345.532990
3.300000	-274.146835	49.182569	1349.954651
3.310000	-273.382370	49.264279	1353.589355
3.320000	-274.669525	49.665832	1353.432404
3.330000	-276.438538	47.853917	1363.708511
3.340000	-277.121170	46.241345	1373.665482
3.350000	-278.006775	44.593169	1381.888657
3.360000	-280.463348	45.117446	1387.423447
3.370000	-283.443451	46.485204	1395.014099
3.380000	-283.446335	47.694633	1400.074341
3.390000	-283.005325	48.340678	1402.763580
3.400000	-284.012405	48.221771	1402.449951
3.410000	-286.023209	47.173533	1405.932236
3.420000	-288.154800	47.089280	1410.361130
3.430000	-289.242035	47.369699	1410.523026
3.440000	-288.720871	48.694537	1406.734329
3.450000	-288.921478	49.818756	1406.578506
3.460000	-287.676331	51.305422	1405.945694
3.470000	-287.875763	48.897061	1407.843109
3.480000	-288.720352	47.289263	1410.214142
3.490000	-289.082092	46.087150	1410.370468
3.500000	-285.863434	45.688776	1411.473587
3.510000	-281.920456	47.381467	1408.625275
3.520000	-278.863770	49.435649	1404.986130
3.530000	-276.410095	51.245021	1404.349716
3.540000	-274.921143	51.563272	1405.608978
3.550000	-272.062866	50.233984	1405.761826
3.560000	-267.435226	48.223358	1403.225327
3.570000	-261.920609	46.771667	1403.217316
3.580000	-256.045792	47.126796	1409.529236
3.590000	-249.369576	49.096088	1415.364365
3.600000	-241.321320	47.567775	1421.989304
3.610000	-233.110741	47.606562	1423.400253
3.620000	-225.623634	46.317013	1426.870590
3.630000	-220.633751	46.395226	1427.655472
3.640000	-217.696007	45.792420	1418.804749
3.650000	-218.302742	46.521448	1410.747025
3.660000	-223.976097	47.845011	1409.488586
3.670000	-224.900505	46.995805	1411.386597
3.680000	-227.636803	46.344991	1417.709335
3.690000	-231.501160	45.821030	1436.834457
3.700000	-225.785103	45.331726	1458.638611
3.710000	-223.250938	45.489740	1477.760910
3.720000	-224.257858	45.530434	1487.245102
3.730000	-225.063164	46.572311	1490.724289
3.740000	-228.202866	47.173841	1489.151474
3.750000	-231.540634	46.130377	1481.416885
3.760000	-232.627022	44.364250	1466.567505
3.770000	-235.844833	42.879492	1457.724609
3.780000	-239.024689	43.845377	1455.989670
3.790000	-240.596832	47.021552	1459.470505
3.800000	-242.083412	46.577080	1469.110077
3.810000	-242.205742	49.511623	1479.538452
3.820000	-238.622292	47.581118	1491.072357
3.830000	-236.690964	47.985216	1498.021515
3.840000	-237.416466	46.505227	1497.235168
3.850000	-242.165588	47.312783	1495.026077
3.860000	-247.275421	46.831431	1489.184036
3.870000	-251.500839	46.712524	1486.345581
3.880000	-251.258209	45.910372	1478.603958
3.890000	-251.255997	44.220547	1479.081741
3.900000	-252.380836	42.490339	1487.937073
3.910000	-253.989403	41.767675	1498.529022
3.920000	-256.205055	43.578634	1506.434738
3.930000	-258.017960	46.393000	1514.023834
3.940000	-257.939011	48.161994	1516.714188
3.950000	-257.698746	48.728870	1517.668198
3.960000	-260.274597	47.928629	1507.245209
3.970000	-264.537292	43.748416	1500.775482
3.980000	-270.169815	41.255483	1502.680618
3.990000	-274.073990	42.096738	1503.951187
4.000000	-273.229721	43.017797	1501.898834
4.010000	-273.552322	45.147011	1503.796661
4.020000	-272.506439	46.950658	1511.066879
4.030000	-270.935638	47.873940	1515.649643
4.040000	-271.658432	46.027057	1520.392426
4.050000	-272.905090	45.544744	1520.235992
4.060000	-272.543350	47.115348	1518.657501
4.070000	-272.705338	48.885933	1514.076599
4.080000	-273.231430	49.573943	1508.391556
4.090000	-273.514374	50.180250	1500.176376
4.100000	-275.968231	49.694441	1496.386520
4.110000	-278.943756	47.238072	1497.179260
4.120000	-279.748032	46.632724	1498.445190
4.130000	-278.178940	47.353481	1496.231018
4.140000	-275.845230	48.318417	1495.754578
4.150000	-273.675507	51.051390	1493.697098
4.160000	-273.916763	51.173475	1492.432037
4.170000	-274.762909	51.534014	1489.745544
4.180000	-276.853668	48.197283	1487.220169
4.190000	-278.142700	48.844280	1485.326202
4.200000	-277.458206	47.960740	1481.217758
4.210000	-276.575134	48.405848	1478.217697
4.220000	-277.742172	48.969867	1479.012436
4.230000	-280.678223	49.045853	1481.227295
4.240000	-281.683609	48.561319	1480.754074
4.250000	-281.321716	48.561635	1476.327774
4.260000	-281.241394	48.922174	1473.481888
4.270000	-279.271088	49.125653	1472.057327
4.280000	-276.092758	48.972729	1467.313019
4.290000	-275.770844	48.614737	1464.466797
4.300000	-278.666412	47.487334	1465.100922
4.310000	-280.798004	47.324872	1464.944412
4.320000	-280.676682	46.561506	1462.416306
4.330000	-279.792938	47.124253	1457.042755
4.340000	-280.638565	48.210322	1455.304367
4.350000	-280.600449	51.348026	1456.410416
4.360000	-281.403885	51.383315	1454.513290
4.370000	-282.770676	50.899736	1451.352158
4.380000	-282.688660	50.537288	1445.188812
4.390000	-279.830719	50.336353	1436.653488
4.400000	-276.531906	50.462895	1426.696075
4.410000	-274.279022	50.308060	1416.579025
4.420000	-273.915924	50.466709	1406.937668
4.430000	-276.046326	49.458854	1403.303299
4.440000	-276.125626	47.570637	1400.301117
4.450000	-274.032822	46.447688	1394.765671
4.460000	-272.544540	46.090967	1388.125671
4.470000	-272.060150	46.333234	1384.647812
4.480000	-270.892776	46.738919	1382.904541
4.490000	-269.845871	45.536490	1383.060242
4.500000	-270.127792	45.700224	1379.422943
4.510000	-269.319611	42.887134	1371.992126
4.520000	-266.703934	43.054686	1368.354187
4.530000	-263.927155	42.132039	1360.606506
4.540000	-263.806015	42.697009	1357.600876
4.550000	-264.288727	42.858205	1358.073578
4.560000	-263.724182	42.817191	1362.495956
4.570000	-262.435837	42.174959	1364.229416
4.580000	-259.619225	42.017901	1365.647751
4.590000	-256.117607	42.869018	1363.746231
4.600000	-254.989876	43.117010	1363.266602
4.610000	-254.586807	43.161840	1360.733368
4.620000	-253.499565	42.847085	1357.727585
4.630000	-252.896408	41.444037	1351.876373
4.640000	-252.893181	40.278804	1351.242432
4.650000	-251.321030	38.911362	1351.713669
4.660000	-249.267868	38.469752	1350.604385
4.670000	-248.301956	38.511401	1348.863724
4.680000	-248.622856	37.991578	1348.546341
4.690000	-248.581001	37.506408	1352.021713
4.700000	-246.972435	37.346487	1352.335693
4.710000	-245.605133	36.546877	1348.700012
4.720000	-245.444351	37.231713	1345.539200
4.730000	-246.129189	38.158494	1342.853409
4.740000	-247.017349	38.607422	1345.699631
4.750000	-246.977699	38.288213	1345.541992
4.760000	-247.459213	37.080376	1344.435501
4.770000	-245.969078	36.035640	1343.487595
4.780000	-243.956085	35.149874	1340.325943
4.790000	-242.467636	35.349217	1333.055756
4.800000	-242.991852	36.996442	1329.735519
4.810000	-243.313950	39.526251	1327.204697
4.820000	-244.480804	41.732407	1328.944061
4.830000	-244.039619	43.183147	1328.786453
4.840000	-240.860435	43.625393	1326.728531
4.850000	-236.673981	44.748341	1322.300797
4.860000	-233.173737	46.029939	1315.027176
4.870000	-229.431702	48.155019	1306.803680
4.880000	-226.052597	51.603025	1289.885086
4.890000	-225.208328	54.607831	1272.178452
4.900000	-224.447769	57.417743	1251.783661
4.910000	-222.398689	60.509345	1235.181152
4.920000	-221.353821	61.312769	1219.686333
4.930000	-222.319908	60.471514	1209.410797
4.940000	-222.721458	58.705701	1201.348404
4.950000	-222.277206	56.538017	1197.395645
4.960000	-221.149994	53.648937	1186.488007
4.970000	-219.860451	49.997769	1175.740135
4.980000	-218.694099	47.473364	1163.568466
4.990000	-216.000000	45.833138	1152.500710
5.000000	-213.546143	43.549726	1136.690796
5.010000	-208.357529	41.185880	1114.238739
5.020000	-202.683144	38.744138	1093.210297
5.030000	-199.503120	36.100190	1070.446907
5.040000	-196.764450	32.815602	1045.941750
5.050000	-195.714317	30.736305	1019.540222
5.060000	-197.119049	29.015961	996.773743
5.070000	-195.708710	26.975137	976.377426
5.080000	-189.913361	24.015480	956.452881
5.090000	-183.634789	21.373439	941.584961
5.100000	-177.397057	19.448022	927.033951
5.110000	-172.325684	20.490215	919.279419
5.120000	-170.033302	23.741421	918.797836
5.130000	-170.277115	26.553878	920.532761
5.140000	-170.037369	28.842693	927.481956
5.150000	-169.676155	30.328407	930.008766
5.160000	-167.383942	30.727414	932.060463
5.170000	-163.803032	30.204091	934.584496
5.180000	-163.362358	31.446900	939.639847
5.190000	-166.100342	32.085315	946.906914
5.200000	-168.315308	32.244917	956.704742
5.210000	-170.126678	32.760290	966.026588
5.220000	-172.179153	32.388934	982.937500
5.230000	-172.982590	30.572886	1001.428619
5.240000	-173.869392	27.717828	1021.817215
5.250000	-177.050102	25.347301	1037.150475
5.260000	-182.243134	23.178666	1051.223175
5.270000	-185.706451	22.578084	1067.348572
5.280000	-187.276733	21.532713	1083.159286
5.290000	-188.039497	20.205016	1091.379364
5.300000	-188.561508	17.793473	1099.601730
5.310000	-191.898087	15.378753	1111.620850
5.320000	-195.518127	14.328929	1124.587860
5.330000	-198.819977	15.292273	1131.074799
5.340000	-201.839897	18.827080	1137.088852
5.350000	-203.051498	22.046177	1142.624588
5.360000	-203.256523	24.906324	1148.634552
5.370000	-202.252823	26.439094	1147.686462
5.380000	-202.012405	27.487327	1141.841019
5.390000	-203.059311	27.613549	1140.420700
5.400000	-203.664520	27.337264	1139.316971
5.410000	-202.943100	28.108896	1136.000809
5.420000	-202.906334	28.201101	1133.001938
5.430000	-202.546303	27.568094	1128.105209
5.440000	-199.689545	26.968469	1123.679413
5.450000	-196.188614	25.205519	1116.724152
5.460000	-195.019714	22.395605	1106.922867
5.470000	-192.684624	20.389434	1093.484291
5.480000	-190.030174	20.631383	1082.574341
5.490000	-187.576317	22.314531	1069.449844
5.500000	-183.434608	24.758181	1055.529221
5.510000	-178.892548	27.121712	1042.081909
5.520000	-176.402275	30.164033	1031.317795
5.530000	-172.419151	32.153027	1030.034775
5.540000	-165.054878	30.778593	1030.174911
5.550000	-161.432465	27.076553	1028.585022
5.560000	-162.155930	25.586388	1027.952316
5.570000	-162.961227	26.391083	1026.214630
5.580000	-164.048630	29.604774	1022.106247
5.590000	-165.459145	32.739935	1018.790100
5.600000	-167.432831	35.112366	1019.581543
5.610000	-168.439758	36.675018	1026.535812
5.620000	-168.639000	36.468360	1037.441986
5.630000	-168.916695	34.093698	1043.605637
5.640000	-171.085556	32.557753	1050.560547
5.650000	-172.693947	33.035607	1062.416275
5.660000	-172.735634	34.484121	1069.687439
5.670000	-174.227303	36.858783	1073.642303
5.680000	-178.575386	39.796189	1082.181580
5.690000	-182.397041	41.443094	1091.355286
5.700000	-186.258690	41.038996	1104.162201
5.710000	-189.717590	39.150459	1119.184616
5.720000	-193.981636	37.138566	1137.049011
5.730000	-197.802780	36.691228	1161.395096
5.740000	-201.465347	36.245481	1186.845245
5.750000	-202.875687	36.565961	1204.077957
5.760000	-206.416100	35.920866	1219.890182
5.770000	-211.725006	35.956160	1230.331161
5.780000	-214.860809	35.066572	1240.298935
5.790000	-219.487602	33.417124	1249.478043
5.800000	-227.372528	32.410855	1258.973907
5.810000	-232.439995	32.488433	1274.473801
5.820000	-232.642303	32.649309	1289.653748
5.830000	-232.080139	33.577364	1299.932663
5.840000	-233.406090	35.104088	1308.789322
5.850000	-235.459068	36.869900	1323.963318
5.860000	-234.855217	38.036408	1342.297470
5.870000	-231.917480	38.722832	1349.411011
5.880000	-234.170891	40.250830	1348.310715
5.890000	-237.227913	41.615726	1350.847351
5.900000	-238.313622	42.179741	1353.854813
5.910000	-237.591179	41.744811	1352.280807
5.920000	-239.320717	41.663415	1347.703934
5.930000	-241.171570	41.665326	1349.130356
5.940000	-240.688690	42.663640	1358.139038
5.950000	-238.918655	43.102391	1362.719955
5.960000	-237.953247	42.379407	1365.878983
5.970000	-237.871918	42.416923	1375.679764
5.980000	-237.791611	42.655373	1389.587967
5.990000	-235.176628	43.221298	1395.910782
6.000000	-236.463959	42.574933	1394.176804
6.010000	-239.561813	43.095396	1392.761887
6.020000	-242.621040	43.856211	1393.877106
6.030000	-242.984634	44.657728	1393.092392
6.040000	-244.593887	44.335660	1386.145676
6.050000	-247.449799	43.972895	1386.152359
6.060000	-248.816414	42.440444	1391.529846
6.070000	-248.855553	41.033579	1397.853943
6.080000	-248.009415	40.072142	1399.594910
6.090000	-247.526711	39.274127	1397.700546
6.100000	-248.856567	39.680132	1401.493851
6.110000	-249.019058	39.966594	1402.918442
6.120000	-249.058525	40.288981	1398.813126
6.130000	-250.545609	39.078281	1388.071960
6.140000	-252.919670	37.991258	1379.383606
6.150000	-252.477463	38.310147	1378.278870
6.160000	-250.747398	39.233113	1375.907013
6.170000	-250.548164	39.796176	1370.533203
6.180000	-249.020081	41.805212	1365.791779
6.190000	-247.611603	42.729133	1362.156143
6.200000	-246.281914	42.487502	1351.882477
6.210000	-245.799034	41.847496	1341.769150
6.220000	-246.966583	42.486866	1333.235641
6.230000	-250.187103	44.410052	1327.864227
6.240000	-251.075439	46.580283	1323.280655
6.250000	-250.397217	48.511420	1314.744843
6.260000	-249.594299	49.112954	1311.741791
6.270000	-246.977104	47.459373	1313.002869
6.280000	-243.715408	44.805564	1314.104935
6.290000	-242.265083	42.111377	1310.784195
6.300000	-244.598808	39.099575	1310.942368
6.310000	-246.206863	38.256094	1312.996628
6.320000	-247.053009	36.611734	1313.788406
6.330000	-249.105812	34.364885	1315.528915
6.340000	-250.635590	32.841021	1320.902893
6.350000	-249.468391	32.440104	1330.697632
6.360000	-246.812584	33.082968	1338.752579
6.370000	-241.502312	33.971920	1339.696381
6.380000	-238.927658	36.465486	1335.425446
6.390000	-239.890694	38.145773	1335.109039
6.400000	-241.660553	38.626174	1336.060562
6.410000	-244.396507	38.505041	1333.060501
6.420000	-248.056526	37.254599	1331.483170
6.430000	-248.619202	36.210182	1332.748123
6.440000	-246.528099	36.655291	1337.014023
6.450000	-244.113892	37.260007	1338.591644
6.460000	-243.632034	38.226529	1343.488052
6.470000	-242.786240	39.071286	1352.810165
6.480000	-241.054665	38.992117	1357.864197
6.490000	-238.599289	39.194642	1355.965607
6.500000	-235.983459	39.237566	1354.384567
6.510000	-235.018219	39.563767	1354.227539
6.520000	-236.586121	38.235751	1354.705551
6.530000	-239.845100	35.707529	1351.234726
6.540000	-243.948692	33.616787	1346.182816
6.550000	-246.640755	31.922507	1347.765823
6.560000	-245.593170	30.913697	1352.977814
6.570000	-241.167152	31.996584	1359.769226
6.580000	-236.580353	33.564005	1364.820816
6.590000	-233.886757	35.258603	1365.605850
6.600000	-230.828545	35.704031	1365.444260
6.610000	-230.505775	35.057985	1365.286957
6.620000	-232.314102	33.888303	1362.919403
6.630000	-235.047508	34.082241	1364.345245
6.640000	-236.171326	34.277770	1369.244949
6.650000	-236.009186	33.511227	1375.407455
6.660000	-232.549423	32.547883	1382.990570
6.670000	-227.763039	31.586765	1395.313507
6.680000	-222.936317	31.991815	1411.743103
6.690000	-217.948303	33.681325	1426.435074
6.700000	-212.839325	35.975547	1429.907028
6.710000	-212.033508	37.665373	1433.856003
6.720000	-212.154480	38.792139	1442.072937
6.730000	-209.294838	37.667284	1445.866608
6.740000	-207.642044	34.614465	1440.337418
6.750000	-209.167755	31.882130	1431.807785
6.760000	-211.017586	30.758865	1426.754715
6.770000	-213.473137	31.481849	1424.232010
6.780000	-217.256508	31.727294	1415.702408
6.790000	-219.029083	32.170499	1405.114288
6.800000	-219.472488	31.569284	1394.366394
6.810000	-218.828491	29.760548	1387.250244
6.820000	-214.763519	28.794977	1377.441711
6.830000	-212.428940	30.282918	1373.481003
6.840000	-211.019287	31.447512	1373.946991
6.850000	-209.169624	32.654078	1378.840576
6.860000	-206.553619	34.460588	1381.680573
6.870000	-204.902184	34.296530	1380.729904
6.880000	-205.465538	32.730381	1376.148788
6.890000	-210.454231	31.284093	1374.889969
6.900000	-216.974747	31.327333	1370.152878
6.910000	-223.615219	32.091334	1362.571243
6.920000	-227.476692	32.735470	1347.717224
6.930000	-231.901009	31.366755	1333.810791
6.940000	-232.542465	29.641641	1321.007813
6.950000	-233.062096	28.554301	1306.937698
6.960000	-236.764824	28.877324	1295.082977
6.970000	-240.831993	29.928739	1283.699310
6.980000	-244.293106	31.457689	1269.315567
6.990000	-249.445137	31.981966	1252.562332
7.000000	-255.641014	30.936914	1232.809006
7.010000	-258.818161	30.372260	1210.367432
7.020000	-264.410538	30.533772	1189.189514
7.030000	-270.848541	30.376709	1170.224358
7.040000	-273.343399	31.264706	1156.630737
7.050000	-274.149719	32.472860	1146.669853
7.060000	-271.615219	32.115503	1141.764481
7.070000	-266.826614	30.230464	1140.812965
7.080000	-266.544174	29.146307	1140.810493
7.090000	-268.514984	28.138447	1142.551155
7.100000	-270.528320	28.660817	1138.917442
7.110000	-274.632935	29.422907	1131.177330
7.120000	-278.093369	30.707683	1124.226326
7.130000	-276.524292	31.269795	1116.478661
7.140000	-275.517181	31.386795	1106.995438
7.150000	-278.091507	32.145704	1101.305992
7.160000	-278.493561	33.550662	1099.087662
7.170000	-278.696533	35.720568	1102.720215
7.180000	-279.019302	37.895884	1109.827713
7.190000	-275.802002	38.261830	1115.512589
7.200000	-272.019989	36.943352	1116.457680
7.210000	-272.340881	35.498972	1114.721443
7.220000	-274.068573	34.608117	1114.567474
7.230000	-274.389450	32.880456	1107.931564
7.240000	-277.728073	31.955263	1100.665802
7.250000	-282.595444	31.992779	1092.765923
7.260000	-283.882095	32.877594	1092.293518
7.270000	-281.788284	33.639684	1087.865570
7.280000	-281.706268	34.360126	1088.495140
7.290000	-279.331726	35.085020	1087.224258
7.300000	-275.589844	36.205422	1090.220360
7.310000	-274.426224	37.730875	1092.746262
7.320000	-275.955490	38.131475	1093.378899
7.330000	-276.560013	37.726741	1093.378738
7.340000	-279.255814	36.681686	1088.798103
7.350000	-282.553421	34.953709	1086.746933
7.360000	-283.758591	34.069210	1083.269890
7.370000	-283.355682	33.107141	1082.952324
7.380000	-283.275543	33.513462	1083.899948
7.390000	-282.592911	33.956663	1091.959068
7.400000	-283.478348	34.796331	1098.121437
7.410000	-284.041016	35.797511	1106.182213
7.420000	-284.563034	36.516677	1110.768120
7.430000	-284.199265	35.513590	1109.346794
7.440000	-283.233521	34.713984	1102.079880
7.450000	-282.870926	33.596764	1093.233070
7.460000	-283.595245	31.995641	1079.168213
7.470000	-284.359375	29.512569	1066.524834
7.480000	-283.434616	26.070922	1053.245186
7.490000	-279.932175	22.270010	1041.227242
7.500000	-273.167831	17.701917	1032.840691
7.510000	-268.291954	12.968179	1022.873276
7.520000	-266.270645	7.109266	1015.752380
7.530000	-267.956802	1.252581	1014.328445
7.540000	-271.539566	-2.153141	1014.804947
7.550000	-275.405624	-1.619960	1018.285446
7.560000	-275.048477	1.241142	1024.769264
7.570000	-273.322845	5.302450	1036.308777
7.580000	-274.289276	7.989004	1048.006203
7.590000	-275.374649	8.783521	1063.497597
7.600000	-276.258041	7.647536	1071.715714
7.610000	-280.438736	6.593577	1078.989334
7.620000	-284.101303	6.228905	1089.107513
7.630000	-283.822418	7.434516	1097.167465
7.640000	-284.067932	10.324548	1107.285004
7.650000	-288.497681	13.489273	1123.886719
7.660000	-292.323593	15.572704	1142.859421
7.670000	-292.568069	15.732942	1162.460815
7.680000	-293.576187	14.250728	1172.738800
7.690000	-294.903336	13.364642	1180.172028
7.700000	-296.793320	14.078405	1187.921509
7.710000	-300.574326	15.394973	1197.094376
7.720000	-306.528931	16.791660	1202.948326
7.730000	-310.915131	18.752684	1209.908012
7.740000	-310.715546	20.437423	1219.868721
7.750000	-309.068192	21.641125	1231.091797
7.760000	-308.911972	23.694036	1240.577988
7.770000	-310.563934	26.347207	1251.644562
7.780000	-312.860046	27.873615	1259.866745
7.790000	-313.988113	28.273256	1269.667587
7.800000	-311.894806	26.267405	1267.299637
7.810000	-310.083771	24.053621	1258.609497
7.820000	-312.900711	24.047261	1261.933823
7.830000	-315.799667	25.207721	1270.475204
7.840000	-318.618652	27.455525	1272.216354
7.850000	-322.079926	29.462969	1271.905518
7.860000	-321.877625	30.584007	1275.070084
7.870000	-316.446732	31.549894	1270.014954
7.880000	-315.121780	32.114868	1263.853256
7.890000	-317.094803	32.359997	1252.162827
7.900000	-320.154877	33.005087	1235.572784
7.910000	-326.351944	33.242266	1225.146034
7.920000	-328.041840	32.318028	1214.873169
7.930000	-324.256943	31.389018	1204.122971
7.940000	-324.416016	31.905027	1197.799553
7.950000	-324.134430	33.831080	1198.586227
7.960000	-320.194000	36.484250	1197.632248
7.970000	-318.951767	40.468617	1193.680992
7.980000	-320.847519	45.211897	1189.730865
7.990000	-320.687759	48.382983	1176.930702
8.000000	-322.980988	48.021493	1165.870491
8.010000	-326.842621	44.610682	1154.019814
8.020000	-326.598480	40.115394	1144.695854
8.030000	-329.171600	36.540210	1144.227043
8.040000	-330.696960	34.848793	1148.811302
8.050000	-327.276352	33.719169	1151.650940
8.060000	-327.479324	34.441517	1156.864731
8.070000	-330.094818	37.089918	1165.237854
8.080000	-328.445923	40.261959	1176.139923
8.090000	-326.476318	40.949338	1183.722084
8.100000	-327.039169	39.506228	1188.306328
8.110000	-328.568604	37.859643	1195.895859
8.120000	-329.452347	34.845295	1210.282715
8.130000	-331.744232	32.875687	1225.616974
8.140000	-334.558624	30.744883	1240.003975
8.150000	-338.419403	29.375534	1257.078835
8.160000	-339.746887	30.742337	1272.413284
8.170000	-336.126175	33.357675	1284.582993
8.180000	-334.918472	34.645948	1291.378799
8.190000	-336.568390	35.129531	1301.812378
8.200000	-335.641617	35.490705	1311.612061
8.210000	-334.312088	35.168318	1315.407837
8.220000	-334.955063	34.887900	1319.837891
8.230000	-335.719360	33.924556	1325.376846
8.240000	-336.846252	33.601533	1332.653809
8.250000	-338.819931	35.485297	1335.345306
8.260000	-338.015488	36.766579	1336.134949
8.270000	-335.240067	38.408395	1335.340683
8.280000	-332.381943	37.724198	1335.968964
8.290000	-328.276993	35.956476	1337.860199
8.300000	-326.143707	35.355896	1338.174957
8.310000	-325.578979	36.360889	1339.910538
8.320000	-324.372467	38.371831	1342.913666
8.330000	-321.758514	40.825342	1343.388901
8.340000	-319.103729	42.753617	1340.545654
8.350000	-317.817413	44.440900	1336.438431
8.360000	-318.019211	43.879748	1329.958969
8.370000	-317.898224	41.227845	1324.270355
8.380000	-317.937546	37.613239	1317.316727
8.390000	-317.776245	35.965062	1314.156448
8.400000	-317.011597	36.365023	1320.003036
8.410000	-316.287628	37.169718	1328.537033
8.420000	-315.605347	37.776661	1333.910110
8.430000	-315.888962	39.425792	1342.602386
8.440000	-315.487427	41.753397	1351.452499
8.450000	-313.676895	43.558312	1355.560883
8.460000	-313.074738	44.199908	1356.826019
8.470000	-314.926270	43.436543	1356.673447
8.480000	-318.668655	41.547055	1358.259933
8.490000	-319.271637	39.376508	1362.530533
8.500000	-318.870087	37.727376	1364.429123
8.510000	-318.750992	37.488607	1367.276474
8.520000	-317.141739	39.018832	1366.012650
8.530000	-316.376770	42.192780	1369.962631
8.540000	-314.768036	44.284162	1371.065674
8.550000	-314.366150	45.331440	1371.855011
8.560000	-315.372040	45.973672	1373.435226
8.570000	-315.211273	44.609091	1371.855316
8.580000	-314.366318	42.601012	1371.855972
8.590000	-312.112549	40.354799	1371.854004
8.600000	-311.950073	38.019563	1372.488495
8.610000	-311.505829	37.291491	1373.435562
8.620000	-312.189468	36.405721	1378.334396
8.630000	-311.545807	36.926499	1382.756439
8.640000	-307.845291	37.811950	1384.017822
8.650000	-304.628159	38.622049	1387.331665
8.660000	-300.364639	39.471575	1389.697433
8.670000	-298.150009	39.354575	1384.326035
8.680000	-300.684174	38.951752	1380.851456
8.690000	-303.821503	38.268190	1380.698715
8.700000	-304.506165	37.022517	1377.224792
8.710000	-302.495544	37.343317	1364.106201
8.720000	-297.827759	37.502282	1342.448059
8.730000	-288.852036	37.942621	1316.678207
8.740000	-276.857574	38.024016	1277.152191
8.750000	-264.782974	37.307709	1225.298737
8.760000	-247.557526	37.156374	1159.372070
8.770000	-220.758797	37.498477	1085.209633
8.780000	-194.849762	33.766566	1003.138107
8.790000	-182.573196	26.291595	922.022850
8.800000	-172.467537	20.407253	836.156246
8.810000	-162.477585	14.550249	742.219002
8.820000	-155.419449	10.275604	651.752071
8.830000	-146.196686	11.661161	570.450684
8.840000	-129.050194	14.437374	509.230171
8.850000	-96.444576	20.177379	493.516769
8.860000	-58.044113	14.426880	487.299397
8.870000	-23.135151	-13.941840	504.466415
8.880000	9.587116	-19.404266	491.622322
8.890000	24.560154	6.198755	437.873672
8.900000	20.824406	25.584862	402.785263
8.910000	9.714371	30.588842	373.074821
8.920000	-1.152189	19.573969	339.572060
8.930000	-11.171425	7.549966	305.754536
8.940000	-18.243917	-2.364538	274.144005
8.950000	-21.935603	-13.437917	250.117283
8.960000	-22.982513	-19.025315	229.251364
8.970000	-18.404706	-16.407751	214.225988
8.980000	-11.977236	-8.894619	199.512577
8.990000	-6.269495	-1.191684	187.482679
9.000000	-1.319090	2.931298	174.032288
9.010000	10.033741	0.754711	162.323376
9.020000	20.502151	-2.220529	155.991610
9.030000	26.821889	-1.736631	152.035439
9.040000	27.823890	1.319046	148.556252
9.050000	29.025644	4.539734	145.551775
9.060000	29.626266	6.913440	141.914467
9.070000	28.581395	7.351554	136.538963
9.080000	26.329845	4.294923	130.847872
9.090000	25.326657	1.601055	126.416185
9.100000	26.092484	3.246371	122.776751
9.110000	26.650743	7.024079	116.133486
9.120000	28.656102	9.999955	108.859529
9.130000	32.598224	8.438576	102.533493
9.140000	34.730838	3.976352	98.895535
9.150000	34.533801	1.030041	96.365904
9.160000	34.696288	-1.910227	93.836275
9.170000	35.741158	-2.430369	92.411702
9.180000	36.260963	0.784276	92.411863
9.190000	35.735216	5.164472	91.938807
9.200000	34.407055	7.212294	90.044289
9.210000	34.207298	3.399295	88.624138
9.220000	33.243756	-1.862853	87.519575
9.230000	33.608544	-4.073140	85.939665
9.240000	33.690382	-3.792721	84.359095
9.250000	32.843058	-0.935753	81.354118
9.260000	31.793433	2.162847	80.564816
9.270000	31.349184	2.926210	76.770208
9.280000	32.800526	1.074235	77.245560
9.290000	34.252209	-1.661282	76.771192
9.300000	34.616656	-3.551408	78.509228
9.310000	32.805280	-2.305419	77.247526
9.320000	31.795639	1.996565	78.037643
9.330000	32.758842	5.735804	77.719271
9.340000	33.319992	6.746205	75.505721
9.350000	33.401828	4.375678	76.296662
9.360000	33.968918	1.321591	76.614708
9.370000	34.572597	-0.368555	76.455931
9.380000	35.174407	1.120974	73.292995
9.390000	34.246436	2.453124	71.238223
9.400000	33.518047	4.224661	70.131697
9.410000	32.834398	4.382675	70.605734
9.420000	32.515879	2.485870	70.289982
9.430000	32.960806	0.230117	69.659131
9.440000	33.363881	-1.255913	71.397985
9.450000	32.396263	0.272403	72.979698
9.460000	31.750563	2.605413	75.666303
9.470000	32.071291	3.812614	75.193737
9.480000	34.285063	2.649607	76.615526
9.490000	36.260283	-0.083048	76.299778
9.500000	36.705381	-2.696477	75.508509
9.510000	35.498531	-3.180693	74.244843
9.520000	34.933650	-1.810072	72.505989
9.530000	34.285740	0.002797	70.450727
9.540000	33.398432	1.650338	69.660443
9.550000	33.240190	1.444950	68.395954
9.560000	33.523481	-0.044260	67.606490
9.570000	33.604470	-0.889650	66.814241
9.580000	32.315273	-0.084320	67.607636
9.590000	30.703484	1.483738	68.397920
9.600000	31.264630	3.694343	70.294404
9.610000	32.995358	4.056790	70.609830
9.620000	35.049360	3.252413	69.977177
9.630000	35.613564	1.243061	69.503959
9.640000	35.816883	-0.083048	69.186895
9.650000	35.695910	0.278445	68.554404
9.660000	34.890608	0.759163	68.238815
9.670000	35.332481	1.925986	67.606654
9.680000	35.935480	1.565130	68.555716
9.690000	36.418694	-0.123425	68.555223
9.700000	35.534273	-1.612635	69.031720
9.710000	34.407565	-1.452714	69.663227
9.720000	33.320499	-0.970724	69.031064
9.730000	33.680534	0.357293	69.980452
9.740000	34.685081	1.481194	69.189514
9.750000	35.451246	1.479604	70.928040
9.760000	35.936159	0.633577	72.351469
9.770000	35.735046	-0.129150	74.249426
9.780000	34.931273	-0.770743	73.459962
9.790000	34.728971	-0.206407	74.883064
9.800000	35.452774	0.397988	74.409350
9.810000	35.854660	0.879661	75.515553
9.820000	36.539328	0.359201	73.619395
9.830000	36.379049	-0.003246	74.092943
9.840000	35.454132	-0.485872	74.884538
9.850000	33.682911	-0.084956	75.042495
9.860000	32.716991	1.120656	73.620379
9.870000	33.681891	1.763839	71.248869
9.880000	34.928726	2.448354	71.089602
9.890000	35.612545	2.570124	70.615071
9.900000	35.170334	1.885291	71.563478
9.910000	37.060831	1.842368	70.298662
9.920000	33.921461	2.204179	72.987232
9.930000	25.430822	1.724097	75.045279
9.940000	31.386284	3.010464	77.256699
9.950000	43.818708	3.856491	75.197012
9.960000	38.670414	3.654283	70.614087
9.970000	27.442802	1.800401	75.678259
9.980000	35.612036	1.404573	78.046490
9.990000	36.297043	2.729091	71.405027
10.000000	34.286081	1.560678	74.728215
10.010000	35.093081	0.638347	75.677280
10.020000	33.921124	2.372051	76.468545
10.030000	37.866133	2.127876	76.626178
10.040000	39.035034	1.442406	78.206417
10.050000	33.361843	0.477790	77.734015
10.060000	33.684100	-0.483010	80.895967
10.070000	36.218262	-0.805714	78.524301
10.080000	35.333330	0.677771	80.422092
10.090000	36.016298	1.480558	80.105030
10.100000	35.894648	0.440274	79.315236
10.110000	34.445341	0.641210	77.258992
10.120000	35.211676	0.437412	76.310096
10.130000	35.172031	0.031726	74.887158
10.140000	34.688816	-0.528158	73.148140
10.150000	35.090363	-0.203863	72.039482
10.160000	35.412790	0.036496	70.144309
10.170000	36.458849	0.035542	71.091732
10.180000	36.902929	-0.565037	69.511330
10.190000	35.293514	-1.408838	70.935905
10.200000	35.736574	-1.569713	73.148308
10.210000	38.232109	-0.768199	75.203078
10.220000	37.989653	0.439320	74.728055
10.230000	37.948818	0.520712	77.575074
10.240000	37.908665	1.284075	77.099234
10.250000	37.707382	1.844277	79.787805
10.260000	37.909342	1.078688	82.634495
10.270000	36.983917	-0.205771	82.951722
10.280000	35.574429	0.398307	84.689264
10.290000	35.574087	1.563222	85.797596
10.300000	34.606810	1.724733	88.486002
10.310000	33.117181	2.169208	89.119146
10.320000	32.553825	1.526342	90.700207
10.330000	33.117349	0.560454	90.542246
10.340000	34.325047	0.880297	89.434900
10.350000	34.364353	1.041490	89.592365
10.360000	32.793905	2.087816	88.170740
10.370000	31.988605	2.610820	87.064866
10.380000	32.995358	3.051478	84.534256
10.390000	34.486004	2.326585	81.846012
10.400000	36.096607	1.444632	80.106831
10.410000	36.459528	0.963278	79.631483
10.420000	36.017147	1.364831	77.418919
10.430000	35.977333	2.250281	75.364638
10.440000	35.735556	2.693483	74.889781
10.450000	36.340084	2.331355	75.047085
10.460000	37.467472	1.406163	72.359497
10.470000	39.520287	0.521984	73.147815
10.480000	40.847260	0.119160	73.462585
10.490000	39.960459	0.401487	75.202749
10.500000	38.792917	1.324135	75.833929
10.510000	38.308853	1.487236	73.463240
10.520000	39.354403	1.366739	73.146340
10.530000	40.362007	0.479698	74.567310
10.540000	41.207462	0.116934	75.357922
10.550000	40.040937	0.116616	74.093925
10.560000	39.074169	-0.284619	75.833106
10.570000	37.424089	0.037768	74.568950
10.580000	36.942064	0.238067	74.570096
10.590000	37.707550	-0.483964	73.305446
10.600000	37.827845	-1.648561	73.937118
10.610000	38.189747	-2.008463	74.412139
10.620000	37.344631	-1.526791	75.044302
10.630000	35.894476	-0.600963	73.937608
10.640000	35.612206	-0.518299	72.832225
10.650000	35.974785	-0.077641	73.148469
10.660000	36.740103	-0.358060	73.937935
10.670000	37.545572	-1.123013	72.357532
10.680000	37.706871	-1.082953	74.412957
10.690000	36.176918	-0.518935	77.259324
10.700000	34.728802	0.084188	79.790263
10.710000	33.198677	0.444409	81.529113
10.720000	32.192603	0.403713	84.060544
10.730000	31.467610	0.483196	86.432544
10.740000	30.582341	0.722283	87.066180
10.750000	29.736885	1.566402	90.544214
10.760000	29.172511	2.491276	89.596297
10.770000	29.090164	3.256229	90.544378
10.780000	28.889051	3.698159	88.171558
10.790000	28.728602	2.813027	87.696371
10.800000	29.211987	1.968590	84.218339
10.810000	29.575078	1.204273	81.372301
10.820000	29.616250	0.842463	78.210675
10.830000	28.328413	0.441229	74.099331
10.840000	27.644085	0.763615	74.889779
10.850000	28.329601	0.120432	72.519256
10.860000	29.820080	-0.643885	72.833700
10.870000	30.505425	-1.005378	72.359661
10.880000	31.110123	-1.567169	73.783254
10.890000	30.948826	-1.968722	76.629128
10.900000	31.430173	-1.084225	77.418756
10.910000	33.119726	-0.641659	77.576058
10.920000	35.091211	-0.602871	80.103393
10.930000	36.459190	-0.924304	79.785510
10.940000	37.464586	-1.004424	80.417835
10.950000	37.584709	-1.124603	79.626240
10.960000	37.342592	-0.963728	79.152037
10.970000	36.738573	-0.762156	75.990738
10.980000	35.974276	-0.801580	75.515060
10.990000	35.693193	-0.963728	74.093438
11.000000	35.090363	-1.567169	71.405192
11.010000	34.326746	-1.806574	70.140215
11.020000	33.602432	-1.805620	69.351735
11.030000	33.160390	-1.323630	67.928635
11.040000	33.241209	-1.045119	69.035489
11.050000	34.046850	-0.803488	68.086758
11.060000	35.857887	-0.803488	66.346263
11.070000	37.144535	-0.884880	65.081285
11.080000	37.425957	-0.564084	65.554014
11.090000	37.706192	0.119478	63.813523
11.100000	38.430166	0.360791	63.022093
11.110000	39.516720	0.401805	63.021601
11.120000	41.205935	0.563634	62.862823
11.130000	42.413462	0.240929	64.285596
11.140000	42.212009	0.242519	65.550246
11.150000	40.119551	0.603058	65.551231
11.160000	37.745159	0.723873	66.817029
11.170000	36.538481	0.402759	66.186665
11.180000	36.497816	0.683178	65.079975
11.190000	36.258076	0.400533	63.973120
11.200000	36.097797	-0.161577	62.708632
11.210000	35.252682	-0.320862	60.654847
11.220000	34.246776	-0.603189	58.915501
11.230000	34.085308	-0.602553	57.808809
11.240000	35.292665	-0.241061	58.281863
11.250000	35.896515	-0.642295	57.333460
11.260000	37.144196	-1.004742	57.965459
11.270000	38.028620	-0.480784	59.229617
11.280000	38.108587	-0.440406	59.861287
11.290000	37.665018	0.083234	62.391080
11.300000	37.985407	0.685086	65.079648
11.310000	38.186520	0.886975	67.450826
11.320000	38.467604	1.088546	69.190173
11.330000	38.749537	0.964550	71.245432
11.340000	37.945253	1.527296	70.454331
11.350000	36.416149	1.487872	69.664538
11.360000	35.451078	0.885385	67.768708
11.370000	35.209469	0.483196	66.819811
11.380000	36.659792	0.521030	63.973611
11.390000	37.545572	0.039040	63.024878
11.400000	37.384954	-0.321816	60.021046
11.410000	36.740950	-0.241697	59.863252
11.420000	37.183163	-0.282075	60.019735
11.430000	37.465435	-0.081457	59.070673
11.440000	38.471508	-0.081457	57.332150
11.450000	39.235638	0.039040	57.803730
11.460000	39.718002	-0.082093	58.595488
11.470000	39.959101	0.319777	58.437857
11.480000	39.515871	0.601786	58.279243
11.490000	39.555176	0.562044	58.437529
11.500000	39.234447	0.400533	59.544058
11.510000	39.073318	0.399897	60.650585
11.520000	39.637014	0.039040	59.069198
11.530000	39.999426	0.039676	59.543893
11.540000	39.637693	-0.163803	57.963982
11.550000	38.631618	0.518486	58.120957
11.560000	38.270567	0.075920	57.014919
11.570000	38.311230	-0.325951	57.331163
11.580000	38.431694	-0.325633	57.016068
11.590000	37.989992	-0.325951	55.593293
11.600000	37.184860	-0.085274	56.225782
11.610000	36.419712	0.317869	54.013219
11.620000	35.815695	0.238067	54.962116
11.630000	35.735386	-0.085274	54.486930
11.640000	36.177937	0.157311	54.962770
11.650000	36.419035	0.116934	54.013220
11.660000	36.539328	0.157948	53.222444
11.670000	36.900551	0.519758	54.803337
11.680000	36.899872	1.001748	55.751415
11.690000	37.141140	0.962006	55.435661
11.700000	37.624695	0.358565	56.225620
11.710000	37.946442	0.077828	56.384233
11.720000	38.268188	-0.164121	57.491417
11.730000	38.147894	-0.042352	56.858108
11.740000	37.585051	0.077510	57.806678
11.750000	37.826487	0.117570	57.649375
11.760000	38.108419	-0.242969	59.070838
11.770000	38.189917	-0.565037	57.491088
11.780000	38.029297	-0.484600	58.123415
11.790000	38.190426	-0.121835	57.965619
11.800000	37.666378	0.200233	56.858601
11.810000	37.746178	0.722601	54.803176
11.820000	37.705853	0.683496	55.752073
11.830000	37.504061	0.481924	54.328481
11.840000	37.625034	0.682224	53.853621
11.850000	38.066227	0.722919	53.221460
11.860000	37.461868	1.446858	54.642922
11.870000	37.059301	1.407117	54.012235
11.880000	37.139782	1.527296	53.063665
11.890000	37.703644	1.083458	53.695171
11.900000	37.583691	0.922583	53.854114
11.910000	37.705004	0.561090	53.537868
11.920000	37.664169	0.359201	53.696319
11.930000	37.383257	0.559818	53.696156
11.940000	37.142159	0.601150	54.171015
11.950000	37.746347	0.037450	54.170522
11.960000	38.028448	-0.163485	54.486767
11.970000	38.230579	-0.524660	54.802848
11.980000	38.189917	-0.805714	55.277379
11.990000	37.947800	-0.766291	55.750927
12.000000	37.706362	-0.083048	55.751418
12.010000	37.665359	-0.202909	55.435338
12.020000	37.383427	-0.001338	55.435336
12.030000	37.584709	0.077828	55.909376
12.040000	37.182142	0.037450	56.225947
12.050000	36.336687	0.118842	56.067495
12.060000	35.934122	0.199915	56.858764
12.070000	36.094912	0.721011	56.225784
12.080000	36.577785	0.479380	56.383085
12.090000	37.262453	0.079100	56.542193
12.100000	37.383427	-0.201637	56.383743
12.110000	37.505079	-0.202591	55.435173
12.120000	37.585388	-0.121835	54.644398
12.130000	37.826317	0.160492	51.641549
12.140000	38.469980	0.081008	52.588644
12.150000	38.671263	-0.081457	50.690030
12.160000	39.153969	-0.081457	51.797050
12.170000	39.073151	-0.161577	51.955172
12.180000	38.912191	-0.201319	51.166035
12.190000	38.870510	0.240293	51.955008
12.200000	38.064360	1.085684	51.638435
12.210000	37.984388	0.885385	52.112638
12.220000	37.741932	0.965504	50.532072
12.230000	37.903400	0.682860	51.479166
12.240000	37.782766	0.762661	50.689047
12.250000	37.783106	1.285665	49.739985
12.260000	37.662474	1.164532	48.318687
12.270000	37.341574	1.486918	50.530270
12.280000	37.341745	1.244651	49.108808
12.290000	37.985916	1.003020	49.898108
12.300000	38.791218	0.922265	48.316721
12.310000	38.751234	1.243061	50.847334
12.320000	38.066397	1.323499	51.320882
12.330000	38.348837	1.484374	51.004474
12.340000	38.951836	1.525070	50.214025
12.350000	39.797804	1.003974	49.738020
12.360000	41.044975	0.801131	48.946754
12.370000	40.481962	0.440274	47.999331
12.380000	40.602427	0.359837	49.105367
12.390000	40.963648	0.601150	48.314920
12.400000	40.641392	0.439002	48.788304
12.410000	40.641222	0.399261	48.312953
12.420000	40.842335	0.438366	47.838423
12.430000	40.199011	0.317233	48.787483
12.440000	40.239334	0.516896	46.732877
12.450000	40.199350	0.798905	46.259001
12.460000	39.797123	0.919402	46.101208
12.470000	40.079735	0.679679	47.523162
12.480000	40.482130	0.478744	47.838423
12.490000	40.683754	0.478744	46.416304
12.500000	40.603613	0.639938	46.417618
12.510000	40.120737	0.679997	46.734680
12.520000	39.919964	1.283439	47.523654
12.530000	40.120399	1.121928	46.575085
12.540000	39.556704	1.323499	46.259332
12.550000	39.355591	1.283757	46.259987
12.560000	38.791727	1.203001	46.418927
12.570000	37.947290	1.282485	45.153128
12.580000	37.664341	1.764793	44.679581
12.590000	37.502193	1.484374	43.256316
12.600000	37.984728	1.121610	46.258510
12.610000	38.266151	1.483102	43.571577
12.620000	38.306816	1.281531	44.994022
12.630000	38.427448	1.401074	45.152308
12.640000	37.944065	1.601055	44.994514
12.650000	37.502193	1.601373	45.153618
12.660000	38.105701	1.318093	46.419089
12.670000	39.153460	1.438908	47.366512
12.680000	39.636845	0.995706	45.469372
12.690000	39.918945	0.674909	45.943740
12.700000	40.241034	0.074012	46.732713
12.710000	39.678186	-0.286845	46.102519
12.720000	39.638033	-0.567582	46.419090
12.730000	39.678698	-0.806987	49.263163
12.740000	41.007198	-1.531880	48.947739
12.750000	41.530228	-1.250189	47.682104
12.760000	41.891790	-1.371004	47.997858
12.770000	42.011576	-1.610409	48.947247
12.780000	41.407047	-1.488640	48.631330
12.790000	41.446861	-0.846092	50.053611
12.800000	41.405519	-0.805079	49.894996
12.810000	41.043108	-0.444222	49.736710
12.820000	41.002106	0.198325	49.420629
12.830000	40.760498	0.802085	48.788794
12.840000	41.202538	1.205545	45.625528
12.850000	41.203047	1.689126	44.677614
12.860000	40.881132	1.648748	45.467734
12.870000	40.438921	1.689762	44.837213
12.880000	40.801500	1.931075	44.204231
12.890000	40.358780	2.171752	44.677944
12.900000	39.876413	2.253143	43.889297
12.910000	39.916739	2.412747	44.520967
12.920000	39.836260	2.454397	44.996318
12.930000	39.675131	2.373323	47.051580
12.940000	39.473679	2.453443	46.734352
12.950000	39.431995	2.816207	47.368643
12.960000	39.270868	3.137322	47.683741
12.970000	39.672924	3.619312	46.892966
12.980000	39.391670	4.100348	48.474680
12.990000	39.672924	3.697205	47.842191
13.000000	39.753742	3.777007	47.526766
13.010000	39.552631	3.936610	50.212713
13.020000	39.190220	3.937882	47.525946
13.030000	38.627712	3.494680	47.842354
13.040000	38.668547	3.575118	46.419909
13.050000	38.749876	3.172611	47.526273
13.060000	39.031639	2.650243	45.312725
13.070000	38.870510	2.288433	46.735662
13.080000	38.790710	2.208313	45.154767
13.090000	39.032316	2.048392	46.261787
13.100000	39.555008	1.806761	45.629298
13.110000	39.916739	1.645568	46.735335
13.120000	40.319815	1.282485	46.735171
13.130000	40.923153	0.639938	45.470684
13.140000	40.682226	0.438048	47.050761
13.150000	40.400972	0.156993	46.418435
13.160000	40.279999	0.035860	48.314592
13.170000	40.924341	-0.245513	46.892475
13.180000	41.085300	-0.727185	49.264310
13.190000	41.688641	-0.927802	48.789452
13.200000	41.768950	-1.369414	48.631820
13.210000	41.447203	-1.087723	49.896143
13.220000	41.768950	-0.926530	49.263818
13.230000	42.170835	-1.006332	47.367332
13.240000	42.292149	-0.885516	49.739986
13.250000	42.775024	-0.442950	46.892802
13.260000	42.534096	-0.482374	46.893130
13.270000	41.728455	0.120114	46.260804
13.280000	41.366385	0.803675	46.260314
13.290000	41.486677	1.166440	45.312563
13.300000	41.647976	1.245605	44.836721
13.310000	41.889584	1.326361	44.520968
13.320000	41.407047	1.124472	42.468001
13.330000	41.326059	1.286937	44.048077
13.340000	41.043617	1.970180	43.890446
13.350000	41.003464	2.010876	43.572889
13.360000	41.244051	2.252507	45.154441
13.370000	41.325041	2.051572	44.047913
13.380000	41.646957	2.010240	44.205706
13.390000	41.727097	1.769563	44.363828
13.400000	41.324701	1.408389	44.680566
13.410000	40.721191	1.166440	44.838360
13.420000	39.957403	1.486282	44.838850
13.430000	39.314079	1.204910	44.839833
13.440000	38.872036	0.883477	44.523916
13.450000	38.509966	0.721011	45.155750
13.460000	38.429996	0.479698	45.313381
13.470000	38.188559	0.519440	44.524080
13.480000	38.067245	0.881251	45.630117
13.490000	38.630939	1.082186	45.314200
13.500000	38.671095	1.161987	45.945706
13.510000	39.032656	0.719739	46.103336
13.520000	38.872036	0.919720	47.684560
13.530000	38.951836	1.160715	48.633293
13.540000	38.428976	1.481194	48.949701
13.550000	38.347649	2.286207	50.688883
13.560000	38.066397	1.843323	51.004963
13.570000	38.186180	2.247101	49.425052
13.580000	38.024714	2.408612	48.949700
13.590000	37.582502	2.286525	50.532234
13.600000	37.100136	2.246465	49.583500
13.610000	37.019148	2.448672	48.160236
13.620000	36.899193	2.730363	47.213961
13.630000	36.898514	2.610184	47.371756
13.640000	36.657587	2.368553	48.477957
13.650000	37.019827	2.047438	48.951503
13.660000	36.537291	2.247737	47.371428
13.670000	36.779408	1.925350	48.951177
13.680000	37.061169	1.764475	49.426198
13.690000	37.262962	1.603600	47.845304
13.700000	37.343103	1.402346	49.741625
13.710000	37.262962	1.039900	49.743262
13.720000	37.262962	1.121292	49.742607
13.730000	37.383596	0.881251	48.636242
13.740000	37.786161	0.881251	50.532072
13.750000	37.825468	0.881887	48.319670
13.760000	38.026072	0.720693	48.319672
13.770000	38.308512	1.001430	49.899584
13.780000	38.268019	1.162942	49.583011
13.790000	38.307325	1.285029	48.793218
13.800000	38.387974	1.686581	49.583503
13.810000	38.750723	1.687217	48.160074
13.820000	38.831034	1.404573	50.846351
13.830000	39.072641	1.727595	49.424889
13.840000	38.911682	1.767019	48.635097
13.850000	38.630598	1.766383	48.002116
13.860000	38.429485	1.886563	48.001296
13.870000	38.269207	1.807079	48.475500
13.880000	38.752081	1.926940	47.685380
13.890000	39.033674	1.324771	47.686527
13.900000	39.033844	1.446858	49.423905
13.910000	38.510645	1.686263	50.690359
13.920000	37.665359	1.765747	50.691833
13.930000	36.820242	2.047756	52.273055
13.940000	36.176407	2.127876	53.379912
13.950000	35.089176	2.489686	54.644561
13.960000	34.967861	2.570442	54.487096
13.970000	35.289780	2.730999	54.645545
13.980000	35.651852	2.771059	55.276724
13.990000	35.691496	2.731953	53.696156
14.000000	36.657415	2.933206	51.481953
14.010000	37.583351	3.013008	48.002934
14.020000	37.825129	2.651834	48.161548
14.030000	38.146706	2.530700	46.737465
14.040000	38.550121	2.651197	46.262770
14.050000	39.274094	2.852133	46.421221
14.060000	38.630430	3.133506	48.001625
14.070000	38.268700	3.334759	48.950031
14.080000	37.584200	2.892510	49.898602
14.090000	37.584200	3.133187	50.216482
14.100000	38.309023	2.892510	50.689540
14.110000	38.068264	2.691575	50.691014
14.120000	38.027771	2.770741	50.058362
14.130000	37.585897	2.851497	51.482609
14.140000	37.908323	2.449944	51.956157
14.150000	38.190426	2.328811	51.481462
14.160000	38.432203	2.248691	51.006277
14.170000	38.874584	1.967954	51.798527
14.180000	38.431353	2.129148	51.955173
14.190000	38.632128	2.089088	52.272404
14.200000	38.229393	2.170161	52.272075
14.210000	38.671263	1.888471	52.271091
14.220000	38.751743	2.130102	51.955173
14.230000	38.469980	1.968908	51.322029
14.240000	38.831543	2.049664	48.635261
14.250000	38.308683	2.051572	47.370447
14.260000	37.906626	2.413065	47.686528
14.270000	37.544044	2.252825	45.789389
14.280000	37.101324	2.855949	45.789881
14.290000	36.860056	2.896645	44.999269
14.300000	36.618790	3.097262	43.735110
14.310000	36.618959	3.217123	44.841311
14.320000	36.900551	3.578934	44.525229
14.330000	36.659792	3.458436	46.264738
14.340000	36.900892	3.578934	46.580654
14.350000	37.665188	3.778915	48.161551
14.360000	38.068094	3.980168	49.425382
14.370000	38.268700	3.900049	50.849628
14.380000	38.711588	4.018956	51.796233
14.390000	38.268700	4.259633	51.797707
14.400000	38.148235	4.059016	52.904072
14.410000	38.067245	3.777643	52.430523
14.420000	37.182142	4.416692	53.062029
14.430000	37.262623	3.617404	52.272074
14.440000	37.100475	3.898141	50.691177
14.450000	36.136595	4.135637	51.323831
14.460000	36.739931	3.172929	49.743265
14.470000	36.337536	3.616132	48.004247
14.480000	36.256887	2.853405	49.585634
14.490000	36.700287	3.613269	49.427675
14.500000	36.499514	3.614223	47.846780
14.510000	36.740103	2.653106	48.636245
14.520000	36.700457	2.932888	50.375916
14.530000	36.901911	3.012690	50.375590
14.540000	36.781446	2.972312	50.691015
14.550000	36.821260	3.054976	51.641060
14.560000	36.982050	2.692529	50.534367
14.570000	37.022713	3.212671	50.850121
14.580000	36.982220	3.012690	51.324652
14.590000	37.585560	2.973902	50.849792
14.600000	37.626732	3.133187	51.482282
14.610000	37.545744	3.012372	51.165545
14.620000	37.706533	3.093446	51.007915
14.630000	37.625713	2.974220	50.690851
14.640000	37.303797	3.095036	50.533547
14.650000	37.022543	2.771695	50.218122
14.660000	36.820921	2.531018	50.375262
14.670000	36.861076	2.452806	49.901223
14.680000	36.499344	2.492866	50.534531
14.690000	36.700457	2.331673	50.849792
14.700000	36.458170	2.653742	51.007915
14.710000	36.659622	2.413383	52.274041
14.720000	36.740103	2.934478	52.432817
14.730000	36.699438	3.295017	53.379912
14.740000	36.498156	3.013962	54.487588
14.750000	35.612713	2.531654	56.384399
14.760000	35.169994	3.256547	56.226769
14.770000	34.284044	3.295335	57.808319
14.780000	33.238493	3.173883	58.440152
14.790000	33.358276	3.093446	59.705786
14.800000	33.156994	3.334123	59.073460
14.810000	32.794924	3.174519	59.863744
14.820000	32.553486	3.012690	58.598439
14.830000	33.277800	2.811119	57.334115
14.840000	33.278138	2.610184	56.542029
14.850000	33.721878	2.570442	56.068810
14.860000	34.003809	2.449626	55.119257
14.870000	34.446701	2.169208	54.803013
14.880000	35.292665	2.409248	53.378602
14.890000	35.615431	2.168253	53.220482
14.900000	35.655754	2.328811	52.114116
14.910000	36.219280	2.008014	50.532892
14.920000	36.782295	2.129148	51.006440
14.930000	37.425957	2.168889	51.954847
14.940000	37.305155	2.128512	52.428559
14.950000	36.660982	2.167617	51.638111
14.960000	36.459190	2.488414	51.953701
14.970000	35.975634	2.286525	52.428394
14.980000	35.694042	2.326585	51.162105
14.990000	35.734367	2.124059	51.163416
