BioWare Version 5.4.9.0 Export
Device:	ISO Leg Press (NEW) 9281CA (SN<616902)	ISO Leg Press (NEW) 9281CA (SN<616902)	ISO Leg Press (NEW) 9281CA (SN<616902)
Samples (#):	1500	1500	1500
Rate (Hz):	100.000000	100.000000	100.000000
Contact period start (sample #):	0	0	0
Contact period end (sample #):	1499	1499	1499
Contact period start time (s):	0.000000	0.000000	0.000000
Contact period end time (s):	14.990000	14.990000	14.990000
First sample time (s):	0.000000	0.000000	0.000000
Normalized force (N):	800.000000	800.000000	800.000000
Normalized length (m):	1.000000	1.000000	1.000000
File Information
Date	Oct 13, 2024  11:33:32
Name	
ID	
Classification	
Description	
abs time (s)	Fx	Fy	Fz
	N	N	N
0.000000	26.792643	7.398158	182.198718
0.010000	26.792812	7.438218	182.356513
0.020000	26.994095	7.196905	182.515290
0.030000	27.396831	7.236965	184.885649
0.040000	28.161128	7.358735	184.568094
0.050000	27.880216	7.678895	183.777318
0.060000	27.678932	7.477006	183.776994
0.070000	28.161808	7.637881	183.936096
0.080000	28.363600	7.556489	183.618545
0.090000	28.364449	7.234103	185.674789
0.100000	28.162147	6.188413	184.885160
0.110000	28.001019	5.266083	186.622537
0.120000	28.564544	3.858265	185.673641
0.130000	28.846475	2.772833	188.833140
0.140000	29.047927	2.571261	190.255425
0.150000	29.209565	2.248239	191.994275
0.160000	29.411188	2.006608	192.942192
0.170000	29.170090	2.527385	192.941373
0.180000	29.169920	2.406570	193.732641
0.190000	29.009641	2.085773	194.524397
0.200000	29.330878	2.085137	194.680395
0.210000	29.491667	1.523346	195.469038
0.220000	30.095345	1.603783	196.575724
0.230000	30.296119	1.645115	196.417274
0.240000	30.497742	1.886110	196.574415
0.250000	30.336274	1.886110	196.416946
0.260000	30.054852	2.126787	196.259152
0.270000	30.054343	2.650427	195.310743
0.280000	29.854248	2.487962	196.417934
0.290000	30.135671	2.487962	196.416783
0.300000	30.175995	2.809394	198.470413
0.310000	30.256474	2.930846	198.629354
0.320000	30.336783	2.972178	200.682323
0.330000	30.337124	3.012238	201.946642
0.340000	30.779504	3.132735	204.316669
0.350000	30.659210	3.132735	205.895935
0.360000	30.215810	3.012874	206.525475
0.370000	30.175654	3.254823	209.213066
0.380000	29.813244	3.295201	213.004555
0.390000	30.135330	2.974086	214.584309
0.400000	29.652286	2.852634	217.900776
0.410000	29.370693	2.611957	222.799124
0.420000	29.008622	2.048894	228.961800
0.430000	28.645872	2.129649	233.226521
0.440000	28.524899	2.011060	238.914001
0.450000	28.484743	1.808535	246.340511
0.460000	28.162826	1.286803	252.659836
0.470000	28.122842	1.127199	257.715162
0.480000	28.243645	0.806085	265.299131
0.490000	28.244154	0.844872	270.512735
0.500000	27.641154	1.005112	277.147650
0.510000	27.600830	1.366286	285.522728
0.520000	28.125218	1.847322	290.260828
0.530000	28.407490	2.290525	298.001783
0.540000	28.890704	2.209769	304.478895
0.550000	29.413734	2.008834	310.322710
0.560000	30.098402	2.531520	319.011736
0.570000	30.621262	2.772833	327.226072
0.580000	31.143952	2.934026	334.649950
0.590000	31.385052	2.937206	343.496113
0.600000	31.827772	2.899055	353.606112
0.610000	31.948745	2.898419	361.033276
0.620000	31.868434	3.059294	367.982786
0.630000	31.305590	3.180110	377.779970
0.640000	30.903025	3.338123	385.522085
0.650000	30.863209	3.339077	395.160007
0.660000	30.863888	3.096492	404.322577
0.670000	31.226299	3.135597	418.859022
0.680000	30.501817	3.217307	429.285429
0.690000	29.656870	3.177565	444.137119
0.700000	28.730765	3.057068	460.886627
0.710000	27.322803	3.338759	477.793243
0.720000	25.793019	3.459256	496.595057
0.730000	23.579416	3.458302	519.666161
0.740000	21.687391	3.058340	539.260063
0.750000	19.272845	2.697166	562.332813
0.760000	16.334931	2.054300	584.298042
0.770000	12.149673	1.854319	610.374954
0.780000	8.808512	1.977679	634.238636
0.790000	5.708619	2.341715	661.264923
0.800000	2.287659	2.865991	684.024208
0.810000	-1.495883	2.146504	706.785297
0.820000	-5.158790	1.788829	730.180023
0.830000	-8.862701	1.793599	750.571907
0.840000	-11.075795	1.434014	769.698647
0.850000	-14.617050	0.991448	786.611801
0.860000	-18.441085	0.989858	799.577347
0.870000	-20.211967	0.749181	806.848694
0.880000	-21.701427	0.830573	810.487961
0.890000	-25.202867	1.393001	814.918335
0.900000	-30.152254	1.715069	823.301117
0.910000	-34.820385	2.356026	830.103973
0.920000	-35.424914	1.755129	838.800537
0.930000	-33.330248	1.229263	842.913528
0.940000	-31.481093	2.194515	843.866348
0.950000	-30.677829	2.156999	837.705780
0.960000	-33.616934	2.516901	832.181175
0.970000	-39.692688	2.152865	822.077065
0.980000	-41.100142	2.714339	809.597702
0.990000	-39.975131	2.956287	797.118683
1.000000	-36.433706	2.914002	788.747688
1.010000	-34.341756	3.154361	779.743744
1.020000	-34.542191	4.438501	771.526115
1.030000	-35.508959	4.916675	761.413177
1.040000	-35.951679	5.597692	749.560699
1.050000	-32.852804	6.718732	735.965477
1.060000	-30.679019	7.313905	722.368263
1.070000	-27.419525	7.908760	711.771957
1.080000	-22.067404	8.503297	702.438477
1.090000	-18.244896	9.944815	695.317574
1.100000	-16.193100	10.741877	688.198792
1.110000	-15.388479	10.821996	682.661865
1.120000	-15.630596	10.537761	679.655258
1.130000	-16.032482	10.133347	677.439903
1.140000	-15.509792	10.331102	674.116394
1.150000	-13.014427	10.891939	673.321533
1.160000	-11.687624	10.931363	672.211071
1.170000	-10.762198	11.010846	674.263699
1.180000	-10.802182	10.930091	677.263748
1.190000	-12.330947	10.809911	682.317947
1.200000	-11.123929	11.214327	686.898579
1.210000	-9.715798	11.615561	690.373020
1.220000	-9.233432	12.338863	690.690567
1.230000	-10.803032	13.058987	688.481758
1.240000	-13.297887	12.736282	683.269619
1.250000	-13.538985	13.054534	679.638390
1.260000	-14.022029	12.369383	677.112373
1.270000	-14.424426	12.082603	675.218987
1.280000	-14.828350	12.321373	674.589775
1.290000	-16.196496	12.358253	674.118851
1.300000	-16.518753	12.517538	673.172241
1.310000	-15.312414	12.395450	670.172363
1.320000	-14.387497	11.630179	665.593689
1.330000	-14.065410	11.427653	658.644012
1.340000	-14.267372	10.903696	649.007729
1.350000	-15.112149	10.541567	640.319855
1.360000	-16.680391	11.381869	634.950897
1.370000	-17.604797	11.780242	632.742096
1.380000	-17.362681	11.173938	629.583740
1.390000	-15.752248	11.335767	629.112000
1.400000	-14.061336	11.696305	629.746445
1.410000	-11.969216	11.456265	626.269241
1.420000	-11.808936	11.376145	621.055138
1.430000	-12.372290	11.617776	617.739159
1.440000	-13.135910	11.616186	611.261871
1.450000	-13.698925	11.492826	607.312096
1.460000	-14.421200	11.892153	605.575691
1.470000	-14.823596	12.131240	605.893730
1.480000	-14.823596	12.774741	606.368919
1.490000	-14.260242	13.256731	607.474464
1.500000	-14.060147	13.901505	610.477325
1.510000	-13.014087	13.903413	611.108650
1.520000	-12.169990	13.583252	610.475998
1.530000	-12.451751	14.187330	610.160255
1.540000	-13.376668	14.186693	611.425400
1.550000	-13.940362	14.949420	612.373642
1.560000	-14.061505	15.633617	611.900253
1.570000	-13.658939	15.672722	611.901741
1.580000	-13.055261	15.992883	614.587830
1.590000	-14.182140	15.550953	615.062355
1.600000	-15.147551	14.828605	619.331017
1.610000	-15.831879	15.069600	623.123329
1.620000	-15.952172	15.310594	626.915970
1.630000	-15.228878	16.197316	629.760704
1.640000	-15.067920	16.035805	636.556343
1.650000	-15.107565	16.520339	642.401962
1.660000	-15.590441	16.600141	646.353233
1.670000	-16.435388	16.357556	650.304459
1.680000	-17.400968	16.074274	654.888374
1.690000	-18.246084	15.874611	658.524864
1.700000	-19.412438	15.752842	662.476440
1.710000	-20.538639	15.429501	671.645088
1.720000	-22.108237	15.268943	678.442047
1.730000	-23.476045	15.271490	689.348236
1.740000	-25.528519	14.471246	702.786644
1.750000	-28.385447	13.832834	717.016518
1.760000	-32.691507	14.920809	736.775230
1.770000	-36.835763	15.645385	759.540237
1.780000	-41.906292	15.568763	788.151192
1.790000	-46.494795	15.570353	818.975372
1.800000	-51.243917	15.692759	854.697716
1.810000	-57.118050	16.694890	891.843185
1.820000	-65.488735	17.979985	930.573166
1.830000	-72.652065	18.261995	970.725403
1.840000	-79.453999	19.468558	1009.610229
1.850000	-81.828560	19.067325	1051.024185
1.860000	-89.636398	17.902410	1084.538574
1.870000	-93.822338	18.869252	1117.255463
1.880000	-101.429577	21.683933	1147.610504
1.890000	-102.797554	22.168467	1169.897232
1.900000	-107.185791	21.287470	1195.981384
1.910000	-111.452377	22.372900	1215.268997
1.920000	-116.241825	22.734076	1232.031311
1.930000	-122.558846	22.410099	1247.213455
1.940000	-127.307632	22.408510	1260.972733
1.950000	-131.934757	23.090480	1271.729660
1.960000	-133.867283	22.407237	1283.432327
1.970000	-134.752384	22.770319	1294.027344
1.980000	-136.765549	22.811651	1305.255493
1.990000	-139.462368	22.732168	1314.112762
2.000000	-143.043434	22.091846	1322.814590
2.010000	-144.935966	22.336022	1326.771881
2.020000	-145.538971	23.061551	1330.411835
2.030000	-145.942726	23.066321	1338.001190
2.040000	-145.260269	22.385304	1346.378418
2.050000	-145.944077	22.666042	1355.230011
2.060000	-147.714455	22.182144	1365.030457
2.070000	-147.673111	21.858803	1372.617706
2.080000	-148.276115	22.420594	1376.571411
2.090000	-148.718498	22.741710	1383.369843
2.100000	-148.837936	24.189904	1391.274841
2.110000	-152.661636	24.512291	1402.183105
2.120000	-157.932602	26.157925	1412.777832
2.130000	-158.896141	25.433349	1425.266083
2.140000	-159.378166	26.520370	1436.174164
2.150000	-159.377831	26.961347	1443.920990
2.160000	-159.538956	26.317846	1445.191559
2.170000	-161.993996	26.317210	1451.201019
2.180000	-164.127800	26.158243	1460.211700
2.190000	-164.651680	25.599313	1471.749237
2.200000	-166.180954	24.231555	1482.813202
2.210000	-167.065720	22.867613	1491.980865
2.220000	-166.663994	22.708327	1496.092834
2.230000	-167.228378	24.115192	1499.889130
2.240000	-169.039749	24.998734	1507.321198
2.250000	-170.007370	25.561797	1513.961029
2.260000	-172.501884	25.761142	1521.864502
2.270000	-174.995552	24.795572	1527.873474
2.280000	-174.873901	25.760189	1532.616791
2.290000	-174.230743	25.358637	1534.830841
2.300000	-176.807602	25.604402	1535.310791
2.310000	-176.445198	27.416634	1542.107422
2.320000	-176.888931	27.539358	1548.429688
2.330000	-179.100327	25.889273	1558.386688
2.340000	-180.628242	23.999465	1567.236725
2.350000	-181.352386	23.117194	1574.192139
2.360000	-182.640900	24.765371	1581.150208
2.370000	-183.688324	25.126864	1583.049316
2.380000	-183.930779	24.967896	1588.742035
2.390000	-186.063225	24.484634	1594.274017
2.400000	-186.585060	23.399521	1605.022247
2.410000	-187.067764	21.995519	1609.765442
2.420000	-188.596870	22.117606	1609.295807
2.430000	-190.568527	23.323853	1610.246979
2.440000	-191.211853	25.172330	1617.203705
2.450000	-192.298409	25.735712	1623.210571
2.460000	-192.983078	26.782039	1629.217407
2.470000	-194.791733	24.449027	1634.751709
2.480000	-195.394737	22.882878	1634.755096
2.490000	-196.078217	22.765242	1634.601563
2.500000	-197.165955	24.294513	1634.607361
2.510000	-199.299927	26.627840	1636.351440
2.520000	-201.432884	27.874466	1637.777496
2.530000	-203.002815	27.112693	1640.624695
2.540000	-203.001801	25.183143	1643.628510
2.550000	-202.317139	22.851087	1644.420929
2.560000	-202.839828	22.124921	1644.583130
2.570000	-203.041107	21.921760	1644.110413
2.580000	-203.002487	23.448485	1639.212372
2.590000	-205.014122	25.054695	1634.319092
2.600000	-206.824989	25.979887	1631.635925
2.610000	-207.267876	27.312038	1633.374817
2.620000	-205.216766	27.636651	1636.532959
2.630000	-203.645805	27.438260	1641.113281
2.640000	-202.842712	27.562256	1646.011475
2.650000	-202.601273	26.880285	1647.119293
2.660000	-203.727814	25.835231	1646.174011
2.670000	-204.934494	24.468744	1642.386444
2.680000	-206.582703	23.462796	1640.811279
2.690000	-207.749222	23.464705	1638.444214
2.700000	-207.669258	24.269717	1637.813019
2.710000	-207.105736	24.713555	1643.027802
2.720000	-206.221817	25.236877	1646.029175
2.730000	-206.501884	24.391487	1649.980896
2.740000	-207.226196	24.511985	1655.671021
2.750000	-207.789040	23.829695	1661.045685
2.760000	-207.547943	23.229433	1666.105286
2.770000	-208.152641	23.473927	1668.952148
2.780000	-208.475235	23.717149	1667.849060
2.790000	-210.406906	24.604506	1664.850128
2.800000	-212.338409	24.766654	1663.588409
2.810000	-212.781639	26.455527	1665.644836
2.820000	-212.056313	26.495587	1664.537476
2.830000	-211.854515	26.496860	1663.591370
2.840000	-212.337898	26.981075	1661.381744
2.850000	-213.504593	26.617039	1660.119904
2.860000	-214.711273	26.373499	1660.278534
2.870000	-214.912727	25.646380	1663.121429
2.880000	-214.309380	24.799717	1667.229004
2.890000	-213.544411	24.158760	1666.437256
2.900000	-213.383453	24.480829	1665.171753
2.910000	-213.747047	24.161941	1661.695404
2.920000	-214.310913	23.321638	1662.327545
2.930000	-213.627609	22.961100	1664.852570
2.940000	-212.863136	22.921041	1669.434509
2.950000	-212.179657	24.166075	1671.170593
2.960000	-210.932144	25.049299	1673.857391
2.970000	-209.845253	25.651469	1671.644470
2.980000	-211.455345	26.978849	1670.541046
2.990000	-212.259628	26.576660	1670.227600
3.000000	-213.707573	26.456800	1669.436523
3.010000	-213.950027	27.342250	1675.123505
3.020000	-212.742165	26.983620	1678.123230
3.030000	-211.494484	26.865665	1681.913574
3.040000	-210.528557	26.469203	1682.545258
3.050000	-210.488579	26.835465	1684.442871
3.060000	-210.891144	27.963500	1686.497925
3.070000	-212.661339	27.482782	1687.606812
3.080000	-213.787544	26.355064	1691.716644
3.090000	-213.907669	26.515941	1694.403076
3.100000	-213.826172	26.513714	1698.039429
3.110000	-213.745186	26.594152	1696.775757
3.120000	-214.348183	25.990710	1697.094757
3.130000	-214.792259	25.110349	1700.890533
3.140000	-215.275978	24.751081	1705.159851
3.150000	-215.799522	24.069428	1710.057556
3.160000	-216.524345	24.190562	1715.907745
3.170000	-217.007729	24.713566	1719.228149
3.180000	-217.650719	24.511360	1717.335114
3.190000	-219.138817	25.514445	1716.391754
3.200000	-220.186409	26.239656	1715.130890
3.210000	-221.192650	25.998660	1716.397644
3.220000	-221.433235	25.478519	1719.718536
3.230000	-221.955925	25.560546	1723.196106
3.240000	-222.318001	25.680090	1725.726227
3.250000	-222.115356	26.445044	1725.887756
3.260000	-221.712288	27.649700	1724.152710
3.270000	-222.920151	27.812166	1720.994507
3.280000	-223.844894	26.569993	1719.259796
3.290000	-224.004837	25.285853	1720.524902
3.300000	-227.022720	23.314651	1723.057343
3.310000	-226.337547	23.796324	1722.900513
3.320000	-223.321190	23.076201	1719.584198
3.330000	-224.366402	22.066437	1716.111542
3.340000	-226.940033	22.827893	1713.431519
3.350000	-227.021027	23.672646	1711.061981
3.360000	-227.825134	24.357799	1709.955780
3.370000	-226.458015	23.954973	1708.218384
3.380000	-224.847404	23.713024	1707.111237
3.390000	-224.405022	23.672965	1704.582397
3.400000	-225.451424	23.711434	1706.164124
3.410000	-227.342606	23.951158	1708.378326
3.420000	-228.388832	24.476069	1711.537506
3.430000	-227.785492	25.481699	1715.488770
3.440000	-226.014946	26.043808	1715.487122
3.450000	-225.693199	25.640985	1712.325775
3.460000	-225.732674	26.040628	1710.904358
3.470000	-228.106903	26.882839	1709.641174
3.480000	-230.239174	26.402440	1707.114014
3.490000	-230.482307	27.007472	1707.586578
3.500000	-229.435745	26.967093	1711.694305
3.510000	-227.101334	26.607828	1713.432373
3.520000	-226.618454	26.605283	1715.168701
3.530000	-227.302788	26.644389	1717.855286
3.540000	-228.348846	25.879435	1720.226166
3.550000	-228.951683	24.993349	1718.804565
3.560000	-229.514862	25.275039	1717.067841
3.570000	-228.630608	25.917588	1713.591461
3.580000	-228.470497	25.717606	1711.695801
3.590000	-228.711601	26.036813	1713.432678
3.600000	-229.114166	27.242106	1714.538574
3.610000	-228.309204	27.925031	1718.174713
3.620000	-227.303810	27.925668	1717.066345
3.630000	-226.821266	28.329762	1716.593140
3.640000	-226.701149	28.249962	1713.905212
3.650000	-227.868179	27.646839	1715.012909
3.660000	-227.465614	25.713790	1715.170074
3.670000	-226.538826	25.029910	1715.485352
3.680000	-226.336868	25.029593	1715.801239
3.690000	-226.577965	25.753531	1714.696686
3.700000	-227.382927	26.116614	1714.540192
3.710000	-229.033852	26.640890	1713.276672
3.720000	-231.125809	27.164531	1714.862183
3.730000	-230.964340	26.923218	1719.125763
3.740000	-228.709732	26.441545	1724.496613
3.750000	-227.380722	26.201503	1725.284760
3.760000	-227.622665	27.408386	1727.815369
3.770000	-228.709732	28.534833	1726.711304
3.780000	-230.360489	29.219666	1726.872589
3.790000	-231.366737	29.500403	1727.980408
3.800000	-231.648323	28.978353	1729.879028
3.810000	-231.848251	27.451309	1730.355530
3.820000	-231.686272	26.326136	1730.516083
3.830000	-232.813156	25.963688	1727.515564
3.840000	-234.100479	26.365241	1727.516205
3.850000	-234.664169	27.168665	1728.624207
3.860000	-234.463402	27.248785	1728.784149
3.870000	-233.537804	26.245062	1732.732422
3.880000	-232.651688	24.838198	1734.154053
3.890000	-231.566322	25.161856	1736.367249
3.900000	-232.331123	24.600064	1734.470947
3.910000	-232.734711	25.206369	1730.996399
3.920000	-233.540520	25.447999	1726.888947
3.930000	-233.943588	25.044857	1725.310669
3.940000	-234.264496	25.525893	1725.943970
3.950000	-233.659622	25.682317	1724.520721
3.960000	-232.853477	27.166757	1724.360626
3.970000	-232.250473	28.373957	1725.151398
3.980000	-231.285744	28.698253	1721.990753
3.990000	-232.131538	28.659147	1716.146118
4.000000	-233.981880	28.015326	1713.147247
4.010000	-235.752426	27.173116	1712.360870
4.020000	-235.189247	26.287984	1707.462830
4.030000	-234.987617	24.964420	1705.883728
4.040000	-234.665024	24.722471	1703.829620
4.050000	-233.619980	25.446728	1699.720886
4.060000	-233.459190	25.610783	1695.928925
4.070000	-234.585732	24.805135	1694.507477
4.080000	-234.585220	24.846466	1692.612305
4.090000	-234.545914	25.008614	1690.084625
4.100000	-233.983414	24.806406	1686.609192
4.110000	-233.780945	24.242706	1684.714691
4.120000	-234.022034	25.888340	1680.921875
4.130000	-234.947800	25.486152	1680.762115
4.140000	-233.941559	24.564139	1681.866211
4.150000	-232.854828	25.168218	1681.706451
4.160000	-232.453117	25.610147	1681.233887
4.170000	-231.769295	26.211363	1679.811737
4.180000	-231.970070	25.767842	1679.495026
4.190000	-232.251495	25.244520	1682.813477
4.200000	-232.853981	24.921816	1686.131104
4.210000	-232.613228	24.121574	1689.922943
4.220000	-232.895836	24.484656	1689.605865
4.230000	-232.976662	25.249290	1691.819580
4.240000	-233.178108	25.890247	1689.768219
4.250000	-233.499519	26.370965	1687.079987
4.260000	-233.095932	25.966870	1689.134460
4.270000	-233.779922	25.285534	1692.926239
4.280000	-233.941223	24.162269	1691.503296
4.290000	-233.539673	23.922546	1692.293091
4.300000	-233.660645	24.445549	1688.817871
4.310000	-234.144707	25.210503	1685.500702
4.320000	-234.787018	26.052395	1679.336731
4.330000	-233.982567	26.253330	1677.280334
4.340000	-233.057137	26.254921	1676.486755
4.350000	-231.770149	26.097225	1676.481537
4.360000	-230.522804	25.257241	1678.373413
4.370000	-229.074516	24.656025	1677.423065
4.380000	-229.315956	23.329916	1677.423859
4.390000	-230.241379	23.169360	1675.528839
4.400000	-231.165115	22.001264	1674.423798
4.410000	-231.406044	22.244802	1672.845032
4.420000	-231.285912	21.924961	1673.160126
4.430000	-230.803551	22.168181	1673.790802
4.440000	-230.120071	22.450828	1670.788971
4.450000	-230.682739	22.047685	1670.789459
4.460000	-230.562279	22.447329	1670.160400
4.470000	-230.721710	21.880130	1669.843842
4.480000	-230.681549	23.364252	1668.580200
4.490000	-230.843193	23.482523	1670.475677
4.500000	-229.436928	24.688771	1672.687225
4.510000	-228.672806	25.453088	1675.057465
4.520000	-228.551994	25.974503	1673.319275
4.530000	-228.833763	25.691540	1669.684235
4.540000	-229.919128	25.529073	1670.635254
4.550000	-230.885216	25.928401	1670.003418
4.560000	-231.608849	26.011064	1670.798615
4.570000	-231.488556	26.776016	1672.062927
4.580000	-231.206963	26.254603	1673.010834
4.590000	-230.321861	26.254603	1678.065704
4.600000	-229.999100	25.129110	1675.854095
4.610000	-230.321182	25.491558	1673.958099
4.620000	-230.563126	24.125071	1670.957367
4.630000	-230.522636	24.605788	1667.957001
4.640000	-230.964676	25.168535	1664.164673
4.650000	-231.850288	24.164814	1663.061096
4.660000	-231.971092	24.526942	1664.640198
4.670000	-231.448906	24.368928	1667.800690
4.680000	-230.644287	23.810318	1667.326996
4.690000	-230.243759	23.532124	1665.114746
4.700000	-230.486046	23.497788	1655.792267
4.710000	-232.338081	22.537625	1644.416077
4.720000	-233.586273	21.421674	1633.513214
4.730000	-233.264366	21.151749	1622.448883
4.740000	-230.449966	21.566658	1613.435150
4.750000	-228.236191	20.892957	1602.842438
4.760000	-226.425156	20.700291	1586.248230
4.770000	-226.867874	18.577436	1564.755615
4.780000	-229.724129	14.766028	1541.369751
4.790000	-232.703049	9.992230	1524.933502
4.800000	-232.584282	5.898495	1519.714294
4.810000	-230.250549	5.858116	1523.024414
4.820000	-226.950569	10.231000	1528.387634
4.830000	-225.381813	13.325146	1531.543701
4.840000	-226.550209	14.849647	1535.337189
4.850000	-227.676407	16.173211	1537.075653
4.860000	-228.318878	16.693035	1542.134125
4.870000	-229.566559	16.211045	1543.082855
4.880000	-230.129234	15.285852	1541.659729
4.890000	-231.055679	16.448860	1541.189148
4.900000	-232.142578	17.972724	1541.032318
4.910000	-233.469887	17.769243	1540.242371
4.920000	-233.308929	16.120111	1544.982117
4.930000	-233.791122	14.551100	1553.515961
4.940000	-233.065796	12.821532	1562.522736
4.950000	-231.497040	13.702211	1569.949860
4.960000	-230.652946	13.779469	1575.953094
4.970000	-230.893539	14.058298	1582.117279
4.980000	-231.054489	14.379094	1585.909729
4.990000	-231.818275	13.853228	1589.070862
5.000000	-232.864174	13.366469	1593.179932
5.010000	-232.823509	13.283486	1597.446289
5.020000	-233.387032	14.808940	1603.927155
5.030000	-232.984802	16.172247	1609.143707
5.040000	-233.507332	18.581242	1618.941071
5.050000	-232.380112	19.866655	1628.736908
5.060000	-231.334389	19.746158	1636.479706
5.070000	-230.971977	19.463831	1641.850464
5.080000	-231.737297	20.263438	1645.960663
5.090000	-232.501427	21.021393	1647.069305
5.100000	-233.668625	21.135532	1648.337585
5.110000	-235.719917	21.894760	1650.870453
5.120000	-236.443550	21.287503	1653.401581
5.130000	-236.483528	21.083067	1659.722382
5.140000	-235.999809	20.842392	1665.887329
5.150000	-235.516930	21.282414	1668.257874
5.160000	-235.677383	21.882357	1668.099731
5.170000	-235.877815	21.639771	1669.050446
5.180000	-236.963005	21.517047	1670.000153
5.190000	-237.767288	21.275417	1673.004791
5.200000	-238.088867	21.235993	1678.063385
5.210000	-237.766953	22.201246	1681.380005
5.220000	-237.084496	23.128027	1682.960266
5.230000	-236.078926	23.327691	1684.222961
5.240000	-236.078926	24.088509	1685.489746
5.250000	-236.439301	24.285947	1687.703461
5.260000	-237.445206	24.482112	1689.441162
5.270000	-237.283394	24.681139	1692.129089
5.280000	-238.532265	24.440463	1695.131897
5.290000	-238.854691	23.958472	1698.134613
5.300000	-238.814713	23.235486	1702.877136
5.310000	-239.217110	23.197654	1705.721039
5.320000	-238.693222	22.997036	1711.725769
5.330000	-239.336891	23.679643	1715.993927
5.340000	-239.900238	24.601973	1718.047821
5.350000	-241.309059	25.846053	1721.843750
5.360000	-240.948509	26.288301	1723.896576
5.370000	-241.028816	26.166851	1729.585205
5.380000	-240.867691	25.200645	1732.745209
5.390000	-241.067787	24.714839	1736.696472
5.400000	-241.751778	25.354842	1739.067963
5.410000	-242.435600	25.835241	1743.493256
5.420000	-242.878487	26.760751	1748.233978
5.430000	-242.839172	27.324770	1751.553406
5.440000	-243.643631	26.681269	1754.398773
5.450000	-244.125313	25.756075	1755.821411
5.460000	-244.487053	25.593611	1758.509796
5.470000	-244.687485	26.235204	1758.827362
5.480000	-245.492111	27.239562	1759.461670
5.490000	-246.418037	27.600417	1760.094971
5.500000	-247.021545	27.922170	1762.308502
5.510000	-246.860596	26.958189	1764.836456
5.520000	-246.296730	25.671186	1766.733154
5.530000	-245.895355	25.392357	1767.050537
5.540000	-245.855026	25.953195	1768.788727
5.550000	-246.378052	27.158488	1770.688477
5.560000	-245.694237	27.719961	1773.531097
5.570000	-245.452293	27.520298	1772.899750
5.580000	-245.895515	27.521571	1775.272736
5.590000	-245.050743	26.680950	1773.376892
5.600000	-244.889954	25.839375	1774.799347
5.610000	-244.368118	26.083232	1775.116241
5.620000	-243.604164	26.404030	1773.534698
5.630000	-242.719566	26.364605	1770.374237
5.640000	-242.478134	26.445044	1768.794159
5.650000	-243.081291	26.203412	1766.582733
5.660000	-243.041489	26.163671	1764.213989
5.670000	-243.001160	25.479474	1761.370575
5.680000	-243.805946	25.439731	1760.741211
5.690000	-244.208862	25.199372	1757.899078
5.700000	-244.128029	24.597520	1754.582153
5.710000	-243.805779	24.072927	1752.214264
5.720000	-243.161430	23.714614	1748.579071
5.730000	-242.316833	24.278950	1746.682434
5.740000	-241.029678	24.802272	1740.677826
5.750000	-241.109985	24.359070	1733.726868
5.760000	-241.189789	24.718973	1726.301849
5.770000	-241.912903	24.636626	1716.507263
5.780000	-242.476089	23.188112	1707.343750
5.790000	-242.716843	22.746819	1700.231812
5.800000	-241.389534	22.950297	1697.071167
5.810000	-239.821640	23.596343	1691.853455
5.820000	-238.776588	25.005435	1690.903076
5.830000	-237.568893	25.486469	1689.004303
5.840000	-237.045021	25.000663	1686.632629
5.850000	-237.165306	24.358116	1684.578491
5.860000	-237.123962	24.196286	1682.839478
5.870000	-237.245453	24.477660	1682.207153
5.880000	-236.884056	24.961557	1682.678741
5.890000	-236.321213	25.203506	1685.838257
5.900000	-235.676697	24.880483	1688.365906
5.910000	-234.429016	24.518038	1687.575806
5.920000	-233.864815	24.314240	1686.153534
5.930000	-234.267548	24.035093	1682.994843
5.940000	-235.273453	24.638853	1682.679749
5.950000	-235.516251	25.161221	1683.628113
5.960000	-235.113686	25.364064	1681.731476
5.970000	-235.395111	25.282990	1682.996948
5.980000	-234.831589	24.438871	1684.416962
5.990000	-234.106079	23.835429	1685.681122
6.000000	-233.824493	23.594118	1682.995331
6.010000	-234.709595	24.034457	1680.781769
6.020000	-234.428505	24.113941	1680.781433
6.030000	-233.503418	24.436327	1681.411957
6.040000	-232.698799	24.918636	1682.676453
6.050000	-232.496841	24.635990	1682.045593
6.060000	-232.737770	23.951793	1678.253754
6.070000	-233.179474	23.149642	1675.251434
6.080000	-233.944778	23.350260	1670.986725
6.090000	-235.434242	23.350896	1670.198730
6.100000	-234.870895	23.312426	1672.410339
6.110000	-234.268234	22.870497	1676.361938
6.120000	-234.508644	22.828528	1675.570648
6.130000	-234.909859	23.107674	1675.098083
6.140000	-234.064911	23.230398	1670.830750
6.150000	-233.622871	23.309882	1668.618011
6.160000	-234.469345	23.954973	1668.143799
6.170000	-234.347694	23.713024	1666.403961
6.180000	-234.548294	23.509545	1671.461273
6.190000	-234.749237	23.143919	1672.252045
6.200000	-234.668930	23.548332	1670.990173
6.210000	-234.991524	24.033184	1669.409607
6.220000	-235.514893	24.917045	1671.623962
6.230000	-235.313774	25.318916	1673.204224
6.240000	-235.072678	24.434420	1673.202087
6.250000	-235.434242	23.871993	1675.890167
6.260000	-236.278008	23.508591	1676.998169
6.270000	-236.277664	23.587440	1678.576904
6.280000	-235.633835	23.466941	1678.577240
6.290000	-236.116867	24.150184	1677.156128
6.300000	-236.600601	24.392770	1675.576538
6.310000	-236.882530	24.274180	1670.677521
6.320000	-236.843056	23.873582	1668.307159
6.330000	-236.601280	23.191928	1664.988373
6.340000	-237.164116	22.464491	1662.778107
6.350000	-237.848961	23.186841	1659.776093
6.360000	-237.365738	25.157087	1657.247437
6.370000	-237.889114	25.718241	1655.194031
6.380000	-237.124817	25.396810	1654.402893
6.390000	-236.681923	24.474161	1651.243561
6.400000	-236.802727	22.988768	1647.609863
6.410000	-237.526360	21.941488	1644.766907
6.420000	-237.445206	21.617827	1645.241760
6.430000	-237.324066	21.816855	1645.083160
6.440000	-236.800522	21.857234	1644.765472
6.450000	-236.357971	22.419343	1647.766693
6.460000	-235.352913	22.460993	1651.083771
6.470000	-234.547783	22.222224	1653.453796
6.480000	-234.668930	22.143694	1655.192505
6.490000	-235.433228	23.106084	1656.615631
6.500000	-235.835281	23.910143	1658.039520
6.510000	-235.592491	24.029050	1656.458466
6.520000	-236.157196	23.866585	1655.510742
6.530000	-236.077560	23.990263	1657.721802
6.540000	-235.916779	24.193107	1661.513275
6.550000	-234.468491	24.318691	1666.408691
6.560000	-233.945801	25.603469	1672.886169
6.570000	-234.428505	26.084187	1678.258057
6.580000	-234.025429	25.921403	1681.892059
6.590000	-234.266190	25.799315	1684.105286
6.600000	-234.950348	25.277583	1687.898254
6.610000	-235.956085	24.394360	1689.952698
6.620000	-236.198372	24.076743	1691.057770
6.630000	-236.280205	23.916186	1691.848358
6.640000	-236.319855	23.472030	1694.693939
6.650000	-235.514725	23.350260	1694.852539
6.660000	-235.917122	23.630360	1696.274994
6.670000	-236.963348	23.586166	1697.854919
6.680000	-237.124649	23.788055	1700.227081
6.690000	-237.568047	24.796865	1703.071320
6.700000	-236.241074	24.836608	1702.910553
6.710000	-235.758194	24.351437	1701.962616
6.720000	-236.039116	24.107263	1702.276581
6.730000	-236.159576	24.266229	1703.383606
6.740000	-237.164116	24.304380	1703.067993
6.750000	-238.250336	25.186015	1703.226959
6.760000	-238.652390	25.869895	1704.649719
6.770000	-237.163780	26.031725	1700.223267
6.780000	-236.037079	25.671503	1698.169495
6.790000	-236.880661	24.987942	1696.115509
6.800000	-237.925362	24.181657	1690.269287
6.810000	-239.533424	23.132152	1684.424835
6.820000	-240.500023	22.207277	1677.786774
6.830000	-240.258247	21.441370	1673.994843
6.840000	-238.406029	21.517992	1670.516754
6.850000	-236.594315	21.274134	1666.405579
6.860000	-235.306137	19.945482	1663.559692
6.870000	-235.829002	18.780567	1659.768555
6.880000	-236.473007	18.380922	1657.240082
6.890000	-236.633957	18.540208	1655.502716
6.900000	-237.076515	19.301980	1656.609436
6.910000	-237.799629	20.101269	1657.874725
6.920000	-238.202202	21.145050	1659.453156
6.930000	-238.283020	21.627358	1662.137939
6.940000	-237.117683	21.829566	1666.400818
6.950000	-235.427963	22.393902	1669.716156
6.960000	-234.623672	22.634579	1673.980560
6.970000	-233.900383	22.636168	1675.716278
6.980000	-233.899368	23.195416	1679.668365
6.990000	-234.260757	23.033587	1680.615326
7.000000	-235.427109	22.915316	1684.091370
7.010000	-236.030624	23.959733	1689.147369
7.020000	-236.512474	23.837963	1693.887604
7.030000	-237.157158	23.518122	1696.575500
7.040000	-236.553986	24.041443	1699.578522
7.050000	-236.674454	23.276173	1701.159241
7.060000	-236.594147	21.950381	1705.425293
7.070000	-236.514008	21.226761	1708.899567
7.080000	-235.871361	20.705346	1710.320648
7.090000	-235.147385	21.388272	1708.423889
7.100000	-235.067757	22.432372	1703.367554
7.110000	-235.389336	24.397847	1696.890228
7.120000	-235.348839	25.480734	1691.832672
7.130000	-235.308853	24.638843	1689.305359
7.140000	-234.946609	23.956235	1684.091217
7.150000	-236.033340	23.232932	1681.406738
7.160000	-236.274605	22.148137	1680.460480
7.170000	-235.430000	20.945705	1675.403625
7.180000	-234.785995	21.268728	1673.034607
7.190000	-234.343277	22.637123	1673.350342
7.200000	-233.861076	22.598653	1670.347046
7.210000	-233.378029	22.358294	1665.766113
7.220000	-235.469643	22.075331	1663.872070
7.230000	-235.549782	22.276902	1661.817932
7.240000	-234.744652	21.354572	1660.078400
7.250000	-233.819908	21.314831	1661.186096
7.260000	-234.141312	22.598653	1658.814606
7.270000	-232.974449	23.603965	1655.810577
7.280000	-232.130859	23.846869	1652.492157
7.290000	-232.210655	24.168301	1650.753143
7.300000	-232.009888	24.006789	1652.808380
7.310000	-231.807922	23.162989	1650.754761
7.320000	-233.135750	22.359248	1651.230957
7.330000	-233.860573	22.118571	1651.864899
7.340000	-233.256554	21.879485	1647.915283
7.350000	-232.411606	21.718291	1645.386475
7.360000	-232.009377	21.435646	1644.595184
7.370000	-232.210495	20.552740	1646.016174
7.380000	-230.642586	20.034506	1647.591858
7.390000	-229.676498	21.080832	1648.540100
7.400000	-229.555695	21.479840	1645.064667
7.410000	-229.396271	21.238209	1640.326050
7.420000	-229.837967	21.319283	1637.957031
7.430000	-231.446869	20.675781	1637.010925
7.440000	-231.970070	19.630728	1637.642273
7.450000	-231.888062	19.147147	1639.698181
7.460000	-230.922653	19.711165	1639.224121
7.470000	-229.354752	21.081468	1637.959167
7.480000	-229.234283	22.970004	1637.167572
7.490000	-229.033173	24.293569	1640.326233
7.500000	-228.912544	23.813169	1639.692261
7.510000	-228.590286	22.608829	1641.587769
7.520000	-228.791229	21.927176	1642.377411
7.530000	-228.993195	21.447412	1643.641235
7.540000	-228.751923	20.964150	1644.433319
7.550000	-229.637367	20.924090	1641.747833
7.560000	-230.199532	21.241072	1642.223053
7.570000	-229.957413	20.314607	1641.590424
7.580000	-229.434387	19.150010	1641.590240
7.590000	-229.354584	18.670563	1640.801117
7.600000	-229.275124	19.073070	1640.325104
7.610000	-229.396095	19.638042	1638.272614
7.620000	-228.712448	20.078700	1637.006836
7.630000	-228.872383	20.838882	1638.744873
7.640000	-228.388153	21.479840	1642.378876
7.650000	-228.065727	22.001572	1643.641876
7.660000	-229.192436	22.967461	1645.854950
7.670000	-231.004662	23.774063	1648.857635
7.680000	-231.126991	24.621998	1649.805878
7.690000	-230.726295	23.783286	1650.596313
7.700000	-229.881180	22.659702	1652.806610
7.710000	-230.082291	21.696041	1657.073761
7.720000	-229.800186	20.410627	1658.179169
7.730000	-230.323563	19.685417	1657.704803
7.740000	-232.295723	20.167724	1659.443329
7.750000	-231.612411	21.735146	1659.919159
7.760000	-229.761566	21.414985	1660.708618
7.770000	-229.318504	21.332639	1658.337585
7.780000	-230.081787	21.369201	1659.919952
7.790000	-230.081268	21.729421	1658.971069
7.800000	-230.643608	21.648029	1655.020294
7.810000	-231.006866	23.095272	1652.964874
7.820000	-229.760033	24.180704	1651.699921
7.830000	-226.299088	24.022372	1646.798279
7.840000	-224.125809	24.783508	1640.318542
7.850000	-223.761703	25.743990	1634.152405
7.860000	-222.191422	26.382404	1624.983795
7.870000	-220.944252	26.498449	1615.498077
7.880000	-219.736725	27.096167	1610.120911
7.890000	-217.644096	27.211576	1603.638245
7.900000	-215.389824	25.681988	1596.682037
7.910000	-215.750542	24.312958	1591.938385
7.920000	-215.025543	24.310096	1589.249969
7.930000	-213.897995	25.516025	1588.457703
7.940000	-212.730789	27.525694	1584.030304
7.950000	-211.123070	30.097156	1580.548981
7.960000	-210.680008	32.066446	1580.073273
7.970000	-209.553131	33.190984	1578.649017
7.980000	-210.074974	32.626966	1576.118408
7.990000	-210.717278	32.181855	1575.170349
8.000000	-211.440407	31.536448	1573.748199
8.010000	-210.917030	31.655354	1573.273834
8.020000	-210.112579	31.616883	1570.588379
8.030000	-210.071579	31.296405	1567.585571
8.040000	-209.669014	31.093562	1565.689056
8.050000	-208.984009	30.492983	1565.531433
8.060000	-209.265091	30.252625	1565.373627
8.070000	-209.747452	30.210656	1562.370636
8.080000	-210.713203	30.251671	1560.794312
8.090000	-211.839737	29.931192	1558.741028
8.100000	-211.920563	29.648866	1557.952698
8.110000	-210.270149	28.081761	1554.789764
8.120000	-208.982475	27.439851	1550.841003
8.130000	-208.579742	27.961264	1543.885712
8.140000	-207.452866	29.729303	1537.405334
8.150000	-206.045410	31.096107	1527.923035
8.160000	-204.597298	31.257936	1515.280365
8.170000	-203.550385	31.539945	1500.265747
8.180000	-201.256645	31.660123	1486.517944
8.190000	-199.082520	31.900802	1472.609924
8.200000	-197.110352	31.579368	1453.329132
8.210000	-193.891861	31.460461	1425.991699
8.220000	-186.889664	31.502747	1388.536224
8.230000	-175.501770	31.505610	1337.327667
8.240000	-161.779640	30.504114	1271.892426
8.250000	-149.065285	28.333887	1194.438568
8.260000	-143.994926	28.841309	1112.237259
8.270000	-137.641144	32.883215	1019.748825
8.280000	-124.446625	35.681360	940.375519
8.290000	-100.099884	34.830881	875.220291
8.300000	-78.447754	30.689774	817.342972
8.310000	-64.484020	24.828318	746.355728
8.320000	-48.587933	20.817565	669.208130
8.330000	-34.540321	21.583154	587.476578
8.340000	-24.839267	22.107749	515.388382
8.350000	-21.540638	23.318766	455.156082
8.360000	-20.415798	24.564118	406.621231
8.370000	-23.837945	24.961853	371.523163
8.380000	-23.756788	21.899499	349.222679
8.390000	-15.824238	16.976899	339.877251
8.400000	-7.126371	10.291032	331.640148
8.410000	7.842082	2.972475	319.606968
8.420000	16.935044	-0.808732	305.849346
8.430000	18.504133	-0.124534	286.720654
8.440000	19.667771	-0.072072	265.702518
8.450000	13.350069	2.543584	241.371826
8.460000	19.224201	5.680335	220.508366
8.470000	25.055802	8.537940	205.493298
8.480000	28.512163	9.235175	192.058638
8.490000	28.993850	10.449055	180.518169
8.500000	22.595499	11.656256	177.358349
8.510000	19.178614	9.722890	177.041122
8.520000	22.523679	5.826910	175.928209
8.530000	26.148808	2.771550	177.346066
8.540000	26.834496	1.642560	179.399038
8.550000	25.670688	0.356512	181.928995
8.560000	24.423345	-0.966735	179.717247
8.570000	21.847840	-1.245882	177.665920
8.580000	22.251255	-0.801089	173.714334
8.590000	23.901333	-0.039634	167.549206
8.600000	27.078479	-0.076514	163.596638
8.610000	31.782863	0.609591	165.806578
8.620000	33.147103	4.304319	166.437101
8.630000	32.903629	6.231961	165.961424
8.640000	34.229582	5.912754	169.118629
8.650000	35.999616	5.552215	168.326704
8.660000	36.764422	4.789488	166.586544
8.670000	36.726306	3.018905	164.845234
8.680000	34.153008	1.050249	162.634310
8.690000	33.469359	-0.913954	157.734974
8.700000	34.879189	-1.954556	150.306175
8.710000	34.156744	-1.875072	143.510523
8.720000	32.225752	-1.513898	137.981159
8.730000	30.497912	-0.909820	132.292032
8.740000	30.738839	0.018553	125.495232
8.750000	30.619395	0.982215	121.069775
8.760000	31.585145	1.261043	118.697777
8.770000	34.802616	2.468880	119.803160
8.780000	36.772573	3.395663	122.487465
8.790000	38.701866	3.920575	125.172429
8.800000	39.585100	5.526784	126.750871
8.810000	40.067976	5.768415	129.752084
8.820000	40.631161	5.087080	128.486118
8.830000	43.246140	4.366321	126.746120
8.840000	45.259987	3.120014	123.267268
8.850000	43.933863	2.194504	120.265565
8.860000	42.163321	1.553229	114.419470
8.870000	40.434801	0.749170	110.467230
8.880000	39.309111	0.225530	105.726672
8.890000	37.096357	-0.619225	102.724479
8.900000	36.533173	-1.302786	102.408892
8.910000	38.263052	-1.584477	99.246445
8.920000	39.550888	-2.146586	100.985301
8.930000	40.314846	-2.588517	101.932722
8.940000	39.629669	-2.506807	104.144141
8.950000	38.583101	-2.544323	107.148793
8.960000	39.065466	-2.223526	109.045115
8.970000	41.076767	-1.699250	109.674980
8.980000	43.330185	-1.092628	112.677990
8.990000	43.812382	-1.493863	112.677336
9.000000	43.692087	-1.894143	110.306815
9.010000	42.485748	-0.247555	109.516532
9.020000	41.600645	-0.166482	108.093921
9.030000	41.239594	-0.406841	104.301939
9.040000	40.434122	-0.485370	103.828715
9.050000	40.838047	-0.042804	101.775420
9.060000	40.797892	0.077375	100.036565
9.070000	40.113564	0.158131	101.302034
9.080000	40.233347	0.360975	100.985956
9.090000	40.072222	1.245471	102.092649
9.100000	39.911263	1.848276	102.884081
9.110000	40.594910	1.769111	104.146275
9.120000	41.881899	1.328771	103.512472
9.130000	43.210739	1.207319	104.617691
9.140000	43.170246	0.362564	105.250509
9.150000	42.929148	-0.441494	105.408628
9.160000	42.647554	-0.562310	103.196392
9.170000	42.164850	-0.161393	100.668073
9.180000	41.923922	-1.007102	99.879100
9.190000	41.281107	-0.685669	97.192496
9.200000	40.637274	-1.007738	96.086457
9.210000	39.913809	-2.134502	97.509558
9.220000	40.155077	-2.416511	95.137724
9.230000	39.913300	-1.812751	95.296503
9.240000	40.717073	-1.408973	95.769885
9.250000	40.194382	-1.288157	97.192496
9.260000	41.079824	-0.844955	97.350453
9.270000	42.247366	-0.925074	96.717800
9.280000	42.770395	-1.165751	98.613138
9.290000	43.211758	-0.561674	98.455509
9.300000	44.137016	0.323459	96.558534
9.310000	44.177679	0.604831	95.925058
9.320000	43.372038	0.926264	96.558861
9.330000	43.010475	0.885250	94.661553
9.340000	43.413380	0.281809	94.188499
9.350000	42.851046	-0.000518	91.975441
9.360000	43.414740	0.240795	91.976100
9.370000	42.850704	0.321551	91.976262
9.380000	42.407135	0.480836	91.344426
9.390000	41.120487	0.360020	89.447618
9.400000	41.643858	-0.203362	90.397170
9.410000	41.845989	-0.686306	91.029329
9.420000	42.449667	-1.168932	91.661327
9.430000	43.415079	-1.328535	92.451612
9.440000	42.850704	-1.087540	91.818303
9.450000	42.609438	-0.885333	91.344427
9.460000	41.724506	-0.927301	90.395695
9.470000	42.248554	-1.329171	91.818792
9.480000	42.088274	-1.489092	91.818955
9.490000	42.249573	-1.490682	94.031853
9.500000	42.410532	-1.048752	94.821642
9.510000	41.364813	-0.567398	94.822296
9.520000	39.956511	0.195647	95.927352
9.530000	38.590401	0.555549	97.508247
9.540000	37.544682	0.393720	100.350516
9.550000	38.068729	0.835650	102.878343
9.560000	39.437895	1.479787	105.564782
9.570000	39.840120	2.363966	109.038232
9.580000	39.598173	2.968043	111.566879
9.590000	39.075483	3.932978	111.722703
9.600000	38.955359	4.336438	114.252661
9.610000	38.230707	4.335166	114.252664
9.620000	38.472994	4.898866	113.935270
9.630000	38.674107	5.179285	114.252497
9.640000	38.955359	5.419008	114.411767
9.650000	38.633612	5.861574	112.671766
9.660000	37.305281	6.103523	112.988502
9.670000	36.339191	5.701335	112.515447
9.680000	36.179083	5.097575	113.621973
9.690000	36.862221	4.937018	112.042064
9.700000	37.586874	4.695068	111.252105
9.710000	38.592779	4.696977	112.831361
9.720000	38.954679	4.857852	111.250306
9.730000	38.753057	4.656599	111.408589
9.740000	38.029085	3.933614	109.986145
9.750000	38.109734	3.652241	108.564357
9.760000	39.236612	3.329218	109.039213
9.770000	40.041744	2.767108	106.509258
9.780000	40.402966	3.007149	105.561014
9.790000	39.919752	2.927666	105.405188
9.800000	39.195608	2.928302	103.984710
9.810000	38.269842	2.888560	102.561771
9.820000	38.672579	2.968043	101.139818
9.830000	39.154776	2.688579	102.562756
9.840000	39.718807	2.769334	101.457371
9.850000	40.683710	3.171523	100.982841
9.860000	40.160681	3.693573	100.348383
9.870000	39.034311	3.251961	101.298595
9.880000	38.953663	3.091403	102.088385
9.890000	39.357077	2.929574	102.246183
9.900000	39.638670	2.808122	102.721042
9.910000	40.161358	2.647883	102.562753
9.920000	39.759472	2.927984	102.879326
9.930000	38.792873	3.170569	102.247494
9.940000	38.390987	2.766790	102.089369
9.950000	38.189873	2.728002	103.036466
9.960000	38.793383	2.687943	103.353530
9.970000	39.115978	2.566809	103.985856
9.980000	39.195948	2.205317	105.724709
9.990000	39.960075	2.408160	105.249358
10.000000	39.315733	2.648201	106.831072
10.010000	37.867277	2.045395	106.672623
10.020000	37.867107	2.286390	107.147154
10.030000	38.470787	2.448538	106.514173
10.040000	38.993647	2.125833	106.671802
10.050000	39.637480	1.925534	107.463399
10.060000	39.516506	2.408478	106.039807
10.070000	39.194250	2.490506	106.041447
10.080000	39.153927	2.610685	107.148298
10.090000	39.314714	2.691123	105.882828
10.100000	39.274391	2.449492	103.512636
10.110000	39.837744	2.249193	104.461696
10.120000	40.360945	2.652335	103.514274
10.130000	40.320448	2.974086	102.248638
10.140000	39.837576	2.892058	101.143421
10.150000	38.992289	2.974086	101.301216
10.160000	39.394684	3.295519	101.303020
10.170000	40.198967	3.052934	100.194527
10.180000	40.723356	3.255141	100.986122
10.190000	40.842970	3.052615	99.563019
10.200000	41.044422	3.053887	99.405058
10.210000	40.360094	2.770925	99.563838
10.220000	40.038008	2.851362	98.300498
10.230000	40.118826	2.692077	97.668173
10.240000	40.480900	2.328994	96.719769
10.250000	40.963943	2.288298	96.246383
10.260000	40.843309	2.088317	95.455278
10.270000	40.923449	2.128695	95.614056
10.280000	40.399910	1.767203	95.456097
10.290000	39.675768	1.847322	95.774640
10.300000	39.917034	1.967820	95.299287
10.310000	40.118488	1.966866	94.192923
10.320000	40.641348	1.807580	94.509166
10.330000	40.641685	1.807580	93.877005
10.340000	40.278597	2.048576	94.667619
10.350000	39.836216	2.210723	94.351864
10.360000	39.474146	2.572852	94.509168
10.370000	39.273201	2.451718	94.509660
10.380000	39.675428	2.412930	94.192596
10.390000	39.956850	2.251419	93.876184
10.400000	40.077824	2.089589	94.035128
10.410000	39.594608	2.252373	94.035459
10.420000	39.071239	2.331856	95.457737
10.430000	39.031424	2.250465	95.142146
10.440000	39.554794	2.452036	94.666964
10.450000	39.876711	2.170027	94.667782
10.460000	40.439896	2.129013	93.876838
10.470000	40.359245	2.170027	93.560760
10.480000	39.876541	2.209133	93.403296
10.490000	39.957190	2.008516	91.822071
10.500000	39.836216	2.370644	92.454888
10.510000	40.238272	2.249829	91.664769
10.520000	40.600515	1.966866	91.032116
10.530000	40.882446	1.525254	89.451550
10.540000	40.842121	1.446724	90.557585
10.550000	40.319090	1.807899	90.556931
10.560000	40.037159	1.526844	89.451711
10.570000	40.761982	1.565949	90.557746
10.580000	40.801456	1.847004	90.242651
10.590000	41.405985	1.646387	88.502159
10.600000	41.606928	1.485512	87.870652
10.610000	41.204361	1.646705	87.871634
10.620000	41.083899	1.606009	87.554080
10.630000	41.204193	1.846686	85.658086
10.640000	41.848366	1.765931	87.396611
10.650000	41.526789	2.047939	86.130814
10.660000	41.727562	2.128059	85.499145
10.670000	42.411381	2.328040	85.025434
10.680000	42.652988	2.488916	87.237671
10.690000	41.969000	2.368418	85.024612
10.700000	42.009493	2.528339	85.657922
10.710000	41.325335	2.850726	85.658251
10.720000	41.606588	2.327722	85.025270
10.730000	42.291426	2.487962	84.393763
10.740000	42.290747	2.247285	85.185028
10.750000	41.848875	1.644161	85.184865
10.760000	41.566605	1.765612	84.395239
10.770000	41.445971	1.444498	85.659564
10.780000	41.164377	1.404438	85.186832
10.790000	41.003078	1.043263	85.343974
10.800000	41.404966	0.842964	83.447489
10.810000	41.485954	0.642347	85.028384
10.820000	41.163528	0.361293	82.814832
10.830000	40.922260	0.079920	84.081123
10.840000	40.760963	-0.000836	82.815488
10.850000	41.123884	0.200735	82.658184
10.860000	41.485275	-0.081274	82.974923
10.870000	41.807362	-0.120379	82.816473
10.880000	42.009493	0.240477	84.238755
10.890000	41.969000	0.440458	82.973939
10.900000	42.129448	0.602923	83.922348
10.910000	42.089804	0.522486	83.922674
10.920000	42.048630	0.682725	82.025532
10.930000	42.652649	0.923402	82.184310
10.940000	42.692463	1.044218	82.342434
10.950000	42.370377	1.285531	81.709124
10.960000	41.727053	1.486784	80.288321
10.970000	41.565754	1.848276	80.445131
10.980000	41.444780	1.969410	80.287990
10.990000	42.128771	1.126245	80.287007
11.000000	42.089634	1.245153	79.814769
11.010000	41.364471	1.525571	79.970763
11.020000	41.727053	1.085232	79.813622
11.030000	43.095028	0.762209	80.129376
11.040000	42.934071	1.205411	78.548809
11.050000	42.250254	1.042628	81.078276
11.060000	42.009155	0.320279	79.970926
11.070000	42.531843	0.722467	80.287336
11.080000	43.014380	1.044854	79.655667
11.090000	42.651970	0.883342	78.865219
11.100000	42.330221	0.923720	79.498362
11.110000	42.249744	1.045808	79.023174
11.120000	42.129110	0.883342	78.233875
11.130000	42.088955	0.762845	79.339749
11.140000	42.290237	0.923084	80.130524
11.150000	42.451366	1.044536	79.496886
11.160000	42.974226	0.882706	79.655665
11.170000	43.296312	0.923402	79.656485
11.180000	43.015060	0.682407	78.865546
11.190000	43.175678	0.279583	79.340730
11.200000	43.417965	0.401670	78.391340
11.210000	43.216343	0.400398	78.548974
11.220000	43.216173	0.602287	78.549136
11.230000	43.216173	0.963462	77.759345
11.240000	43.417456	0.964098	76.020982
11.250000	43.457781	0.440140	76.810119
11.260000	43.175678	0.722467	77.285964
11.270000	43.135183	0.842329	75.072905
11.280000	43.095709	0.722467	76.653799
11.290000	43.376963	0.842010	76.179104
11.300000	43.578585	0.521532	75.389641
11.310000	43.417456	0.400398	76.338046
11.320000	43.418137	0.240159	74.125155
11.330000	43.618738	0.280537	75.388493
11.340000	43.418304	0.279265	75.862531
11.350000	43.940996	0.078965	75.388984
11.360000	44.423870	0.241113	75.704412
11.370000	44.262402	0.440776	76.810612
11.380000	43.980980	0.320597	78.076409
11.390000	44.061460	0.562227	77.759016
11.400000	43.578754	0.481472	77.284980
11.410000	43.860176	0.441094	77.285470
11.420000	43.940147	0.683043	76.969062
11.430000	43.819683	0.723739	76.969225
11.440000	43.940825	0.442366	76.811103
11.450000	44.141769	0.521532	77.918121
11.460000	44.262743	0.521532	76.811430
11.470000	44.262911	0.442684	76.178776
11.480000	44.343052	0.683043	76.178286
11.490000	44.262743	0.681453	77.127021
11.500000	44.745956	0.521532	76.495185
11.510000	44.262062	0.844236	76.970372
11.520000	44.543825	0.642983	76.652982
11.530000	44.745787	0.563182	76.653636
11.540000	44.543316	0.401670	75.863843
11.550000	44.221569	0.482744	76.021965
11.560000	44.624304	0.321551	76.021148
11.570000	44.504009	0.200417	75.863352
11.580000	44.423361	0.120297	76.811759
11.590000	44.141769	-0.080638	77.760654
11.600000	44.343052	-0.361693	77.761477
11.610000	44.382866	-0.120697	76.654948
11.620000	44.584320	-0.120379	76.337555
11.630000	44.544334	-0.040260	77.918451
11.640000	44.383036	0.080556	78.234039
11.650000	44.624136	-0.160757	77.601223
11.660000	44.704784	-0.281255	77.759674
11.670000	44.665138	-0.038988	77.759838
11.680000	44.664799	-0.200817	79.181952
11.690000	44.502991	0.121569	79.023670
11.700000	44.342882	0.161629	78.866693
11.710000	44.101105	0.282445	78.076245
11.720000	44.182093	0.322186	77.918613
11.730000	44.383036	0.079920	78.077064
11.740000	44.423361	0.039860	78.077393
11.750000	44.825928	0.081192	77.602370
11.760000	44.543655	0.039542	77.602861
11.770000	44.705463	0.080238	75.704901
11.780000	44.423021	0.241431	78.076245
11.790000	44.584148	-0.039624	76.338048
11.800000	44.745447	0.160357	76.811428
11.810000	44.624645	-0.000836	76.338867
11.820000	44.866251	-0.000518	75.705886
11.830000	44.946560	-0.321951	76.180580
11.840000	44.746128	-0.241831	74.599194
11.850000	44.625492	-0.281891	74.442053
11.860000	44.585508	-0.443720	74.283274
11.870000	44.383717	-0.081592	73.968671
11.880000	44.182093	-0.321315	72.861814
11.890000	43.740051	-0.523522	73.968507
11.900000	43.780376	-0.483462	73.808417
11.910000	43.900841	-0.443720	74.126302
11.920000	43.417795	-0.120379	74.758136
11.930000	43.417625	-0.563264	76.970865
11.940000	43.095369	-0.521614	76.181071
11.950000	43.417795	-0.723821	78.078210
11.960000	43.417795	-0.843683	78.078377
11.970000	43.578585	-0.521932	79.183102
11.980000	43.417795	-0.722549	79.657305
11.990000	43.337147	-0.682489	80.289956
12.000000	43.135864	-0.882788	79.816573
12.010000	43.136034	-1.043982	79.499016
12.020000	42.894764	-0.843683	80.132491
12.030000	42.733128	-0.522568	80.764489
12.040000	42.451706	-0.681217	81.081389
12.050000	42.170113	-0.722549	79.975681
12.060000	42.129448	-0.722231	81.080734
12.070000	41.969339	-0.763881	80.133475
12.080000	41.646744	-0.562628	81.397798
12.090000	41.928675	-0.681853	82.503014
12.100000	42.451534	-0.561992	82.503671
12.110000	42.048462	-0.722867	82.029795
12.120000	42.370886	-0.803305	83.136485
12.130000	42.169436	-0.802669	83.293790
12.140000	42.007965	-1.003922	83.609869
12.150000	41.968491	-0.882470	81.871181
12.160000	42.169773	-0.962908	83.768320
12.170000	41.887163	-1.203903	83.135502
12.180000	41.525431	-1.284977	82.345385
12.190000	41.485275	-1.365414	82.976889
12.200000	41.404966	-1.405474	85.032316
12.210000	41.082541	-1.525654	84.083093
12.220000	40.840763	-1.566986	85.663496
12.230000	41.001892	-1.486230	85.347904
12.240000	40.760963	-1.808299	88.667490
12.250000	41.323807	-1.807027	86.611574
12.260000	41.525431	-1.525972	87.718102
12.270000	41.525089	-1.686529	88.192633
12.280000	41.323807	-1.645833	87.717117
12.290000	41.282974	-1.525336	89.140221
12.300000	41.122355	-1.163207	88.034181
12.310000	40.759773	-1.323446	87.717937
12.320000	40.840082	-1.082769	87.243735
12.330000	40.678785	-1.283387	86.454762
12.340000	40.357208	-1.323765	85.979738
12.350000	40.276730	-1.002332	87.244226
12.360000	40.518167	-1.283068	85.822273
12.370000	40.678785	-1.202631	86.295984
12.380000	40.880919	-1.605137	85.979739
12.390000	41.001381	-1.484004	85.978920
12.400000	41.081861	-1.644879	86.454106
12.410000	41.242819	-1.363506	86.138520
12.420000	41.001211	-1.684939	86.453450
12.430000	41.081692	-1.644879	85.663657
12.440000	41.162001	-1.564123	85.031496
12.450000	41.162001	-1.603229	85.188798
12.460000	41.001211	-1.804800	85.980066
12.470000	41.282125	-1.683666	85.031003
12.480000	41.201307	-1.925934	84.874194
12.490000	41.121336	-2.086173	84.241868
12.500000	40.839405	-1.764104	84.716235
12.510000	40.759264	-2.367228	85.664315
12.520000	40.276560	-2.407288	84.083582
12.530000	40.035122	-2.328122	87.087415
12.540000	39.310808	-1.804800	88.193617
12.550000	38.586157	-1.965994	88.825121
12.560000	38.263390	-1.723409	91.828136
12.570000	38.344040	-1.321538	95.147557
12.580000	38.021275	-1.038575	95.621432
12.590000	38.101414	-1.197542	97.675874
12.600000	37.899282	-1.318358	100.518964
12.610000	38.221369	-1.156847	102.257818
12.620000	38.463144	-1.598459	103.838059
12.630000	38.503641	-1.958679	105.735362
12.640000	38.422312	-2.119873	105.893154
12.650000	38.462976	-2.200628	105.259520
12.660000	37.859297	-2.281066	105.103365
12.670000	37.215462	-2.642559	103.998473
12.680000	36.773083	-2.523015	103.049247
12.690000	36.893887	-2.804070	102.417740
12.700000	36.209558	-2.723950	101.153420
12.710000	36.129080	-2.845084	100.679379
12.720000	36.290037	-3.085125	101.943867
12.730000	36.330872	-3.045701	101.943376
12.740000	36.571970	-3.367451	102.576355
12.750000	36.652618	-3.527691	103.208519
12.760000	36.733437	-3.408148	101.468355
12.770000	37.336777	-3.166834	103.997325
12.780000	37.417597	-3.407194	103.996344
12.790000	37.377441	-2.965263	103.838875
12.800000	37.256468	-2.482955	103.364347
12.810000	36.974874	-2.163431	103.838712
12.820000	36.693283	-2.002555	103.048264
12.830000	36.612633	-1.721182	103.995852
12.840000	36.894566	-1.801302	102.415938
12.850000	36.854410	-1.359372	102.257816
12.860000	36.975044	-1.158119	102.256506
12.870000	37.135662	-1.037621	103.520827
12.880000	37.377100	-1.117741	102.887356
12.890000	37.658693	-0.596009	103.362871
12.900000	37.700037	-0.556586	102.256177
12.910000	37.900640	-0.515889	102.414299
12.920000	37.820162	-0.676447	103.519024
12.930000	37.981119	-0.757839	103.993068
12.940000	38.102262	-0.758793	103.519024
12.950000	38.101583	-1.039848	102.413317
12.960000	38.503979	-1.039212	103.518534
12.970000	38.303036	-0.678673	102.097400
12.980000	38.384195	-1.201041	101.623357
12.990000	38.544474	-1.040166	99.884836
13.000000	38.544983	-1.120921	100.833076
13.010000	38.585308	-1.160663	99.568590
13.020000	38.585478	-1.361916	99.410303
13.030000	38.544983	-1.562851	100.834058
13.040000	38.665956	-1.443308	99.410795
13.050000	38.907394	-1.643607	99.884180
13.060000	38.988213	-1.441718	99.726057
13.070000	39.027859	-1.321538	100.358875
13.080000	39.229650	-1.402612	99.727204
13.090000	39.471428	-1.281796	99.726222
13.100000	39.350454	-1.282115	98.146311
13.110000	39.390779	-1.202313	96.881005
13.120000	39.430595	-1.081179	97.513329
13.130000	39.712355	-1.041120	96.565085
13.140000	39.672371	-0.961000	95.617333
13.150000	39.471258	-0.800761	96.881985
13.160000	39.591553	-0.800761	95.301746
13.170000	40.034103	-0.760065	96.091045
13.180000	39.873316	-0.317499	94.510479
13.190000	40.356190	-0.478692	95.301092
13.200000	40.517149	-0.479328	93.878647
13.210000	40.718092	-0.438314	93.720690
13.220000	40.879219	-0.357558	94.196038
13.230000	40.557133	-0.356922	95.301256
13.240000	40.718092	-0.277121	93.247140
13.250000	41.000362	-0.358513	93.087541
13.260000	41.321772	-0.438950	91.192204
13.270000	41.281956	-0.197637	91.982162
13.280000	41.563547	-0.318453	91.824529
13.290000	41.322281	-0.398572	92.457345
13.300000	41.683842	-0.680581	92.139956
13.310000	41.523054	-0.639885	90.718167
13.320000	41.483068	-0.238015	90.876450
13.330000	41.523222	-0.478692	90.717671
13.340000	41.563377	-0.558494	91.350653
13.350000	41.644537	-0.679627	91.193025
13.360000	42.006437	-0.559130	91.507628
13.370000	41.885633	-0.800442	89.926898
13.380000	42.248045	-0.720005	91.350491
13.390000	42.489313	-0.800761	89.927883
13.400000	42.449667	-0.519070	89.611148
13.410000	42.609947	-0.359466	91.508285
13.420000	42.610117	0.042404	89.610325
13.430000	42.852064	-0.238651	89.137762
13.440000	42.932034	-0.157577	87.398253
13.450000	43.253441	0.203597	88.029595
13.460000	43.092993	0.524712	86.766582
13.470000	43.294106	0.646163	88.978983
13.480000	43.455235	0.927218	87.241115
13.490000	44.019096	0.927218	86.766913
13.500000	43.979113	1.286485	85.503080
13.510000	44.059761	1.648931	85.345284
13.520000	43.697691	1.689309	83.132556
13.530000	43.818832	2.251101	84.238919
13.540000	43.698029	2.330902	82.816145
13.550000	44.140751	2.169073	83.450274
13.560000	43.779867	1.404756	83.607087
13.570000	43.860855	1.203503	82.658187
13.580000	43.820360	0.841056	84.081288
13.590000	43.901180	0.800997	85.346105
13.600000	44.021814	0.117117	83.291005
13.610000	44.223097	0.238569	84.554346
13.620000	43.901180	0.076739	84.713614
13.630000	44.022154	0.157813	84.871573
13.640000	44.062817	0.276721	83.764060
13.650000	43.700577	-0.044076	83.923494
13.660000	43.258024	0.035408	83.609054
13.670000	43.258196	-0.125150	83.765699
13.680000	43.177376	0.036043	82.976234
13.690000	43.016418	-0.044712	82.502361
13.700000	43.218040	0.076421	81.552476
13.710000	43.097067	0.236979	81.712075
13.720000	43.258366	0.558093	82.029139
13.730000	43.459139	0.396582	82.817785
13.740000	43.458797	0.597835	82.817623
13.750000	43.741070	0.799724	81.079260
13.760000	43.700235	1.201913	82.976238
13.770000	43.619926	1.242291	82.817621
13.780000	43.619759	1.001614	82.976074
13.790000	43.378321	1.081415	82.659989
13.800000	43.377981	0.880480	82.976235
13.810000	43.418304	0.961236	82.500883
13.820000	43.538939	1.122429	81.554283
13.830000	43.056063	1.322728	80.605218
13.840000	42.975754	1.322410	81.869708
13.850000	42.774981	1.483604	82.345548
13.860000	42.654007	1.644161	79.499676
13.870000	42.814796	1.442908	79.499838
13.880000	42.694500	1.481696	79.341386
13.890000	42.574036	1.121475	80.764162
13.900000	42.734316	1.402212	80.290449
13.910000	42.573868	1.161217	79.657632
13.920000	42.654177	1.120521	79.182939
13.930000	42.533543	0.959646	81.554280
13.940000	42.452553	1.000342	81.080732
13.950000	42.653667	0.960282	80.447587
13.960000	42.452894	0.558411	79.658290
13.970000	42.372414	0.639485	81.713059
13.980000	42.252121	0.638849	80.764324
13.990000	42.453062	0.477656	79.974206
14.000000	42.493387	0.598471	80.448080
14.010000	42.372753	0.397536	79.974043
14.020000	42.372414	0.599425	80.448406
14.030000	41.969849	0.438232	80.765308
14.040000	41.648272	0.518988	81.240001
14.050000	42.010342	0.679863	81.712895
14.060000	42.130638	0.881434	80.922445
14.070000	41.848875	1.043263	80.448246
14.080000	42.130806	0.961872	80.765308
14.090000	41.768396	1.283622	80.290285
14.100000	41.929865	1.524935	79.659271
14.110000	41.929356	1.323364	79.658780
14.120000	41.728071	1.524935	79.974042
14.130000	41.809059	1.644479	78.867674
14.140000	41.929693	1.563723	81.080735
14.150000	41.889709	1.925216	79.184086
14.160000	41.929865	1.965276	81.397140
14.170000	41.930033	1.724281	79.658454
14.180000	42.010683	1.923944	80.764982
14.190000	42.010851	1.883884	79.184577
14.200000	42.252460	1.723963	79.342207
14.210000	42.051176	1.803764	79.974861
14.220000	41.809740	1.883884	78.235842
14.230000	41.487822	1.481378	79.816740
14.240000	41.246386	1.241655	79.184578
14.250000	41.608965	1.360562	78.710207
14.260000	41.327202	1.361516	80.449226
14.270000	41.649290	1.119885	79.027275
14.280000	41.729429	1.160581	80.924085
14.290000	41.689785	1.200005	79.343357
14.300000	41.528826	1.159945	79.501149
14.310000	41.891068	1.119567	77.762133
14.320000	41.448687	1.078871	78.552415
14.330000	41.850574	1.038175	78.395113
14.340000	41.730110	1.079189	79.343191
14.350000	41.608965	1.078871	78.078869
14.360000	41.528826	1.160581	78.552577
14.370000	41.569149	1.159627	77.604335
14.380000	41.568981	1.359926	76.339849
14.390000	41.448347	1.241019	77.921891
14.400000	41.408022	1.360880	77.604828
14.410000	41.810587	1.319866	76.814050
14.420000	41.649290	1.641935	76.340176
14.430000	41.931051	1.642253	76.657735
14.440000	41.810078	1.763705	76.499612
14.450000	41.850742	1.520801	76.655765
14.460000	41.810249	1.601239	76.815197
14.470000	41.769924	1.441000	76.339849
14.480000	41.850574	1.400304	75.709327
14.490000	41.850403	1.683267	75.549565
14.500000	41.890558	1.521755	75.708344
14.510000	41.689276	1.843506	76.182381
14.520000	41.769924	1.722373	75.233648
14.530000	41.488331	1.723963	73.969983
14.540000	41.769245	1.521755	73.969816
14.550000	41.850403	1.642889	74.444185
14.560000	42.011362	1.319866	75.865810
14.570000	41.769924	1.482332	75.235287
14.580000	41.810419	1.281397	74.759775
14.590000	41.931051	1.401894	74.286227
14.600000	41.568130	1.239747	74.602469
14.610000	42.091671	1.200323	75.234467
14.620000	42.051516	0.999388	74.285735
14.630000	41.930714	1.401576	74.128102
14.640000	42.252798	1.241019	73.969979
14.650000	42.051348	1.160899	74.759772
14.660000	42.212305	0.917996	74.285897
14.670000	42.292786	0.918950	74.601651
14.680000	42.092012	0.718651	75.075852
14.690000	42.413250	0.637895	75.550220
14.700000	42.614700	0.436642	75.549072
14.710000	42.413588	0.476384	75.706869
14.720000	42.414097	0.396264	76.497480
14.730000	42.454422	0.436324	77.446215
14.740000	42.253139	0.275448	77.288255
14.750000	42.695520	-0.247555	78.079032
14.760000	42.695858	-0.167754	77.129968
14.770000	42.857666	-0.609684	77.445723
14.780000	42.736692	-0.729864	76.814874
14.790000	42.454252	-0.970223	76.815034
14.800000	42.454422	-1.131098	76.182713
14.810000	42.333960	-1.171794	76.814707
14.820000	42.092350	-1.211854	75.866792
14.830000	42.131996	-1.291973	75.391607
14.840000	41.971716	-1.251277	74.600832
14.850000	41.890728	-1.050024	75.076839
14.860000	42.051687	-1.452213	74.285242
14.870000	42.252460	-1.009328	75.075690
14.880000	42.292786	-0.809665	75.550548
14.890000	42.977112	-0.567398	75.550057
14.900000	43.097576	-0.486325	76.971519
14.910000	43.258024	-0.486325	76.180417
14.920000	43.177885	-0.123560	76.655765
14.930000	43.096388	-0.043758	76.498137
14.940000	43.096727	0.479246	76.181563
14.950000	43.096388	0.761255	74.443202
14.960000	43.096218	1.123701	74.916914
14.970000	43.136374	1.324318	74.758954
14.980000	42.935261	1.525254	74.284588
14.990000	42.814455	1.726189	74.442710
